##########################################################################################
### CosmicWatch: The Desktop Muon Detector
### Questions? saxani@mit.edu
### Comp_date Comp_time Event Ardn_time[ms] ADC[0-1023] SiPM[mV] Deadtime[ms] Temp[C] Name
##########################################################################################
Device ID: Muon5
1 26600 696 307.73 30 18.96
2 54202 704 326.52 70 18.00
3 164760 739 495.61 203 18.00
4 249615 380 78.12 317 18.00
5 271514 671 277.06 364 18.96
6 314960 608 202.86 429 18.00
7 567222 295 51.75 711 19.61
8 571755 158 27.53 734 18.00
9 647815 387 81.05 836 18.00
10 648837 496 144.49 856 18.00
11 695850 67 18.51 918 18.96
12 721363 281 48.90 969 18.00
13 734849 339 62.98 1002 19.61
14 1028777 116 23.26 1347 19.61
15 1116781 308 54.81 1464 18.00
16 1139492 705 364.03 1514 19.61
17 1164911 807 770.01 1562 19.61
18 1217510 604 210.97 1631 19.61
19 1254872 568 189.84 1683 18.75
20 1289027 384 80.08 1742 19.61
21 1443133 679 318.29 1895 19.61
22 1508751 281 48.90 1983 19.61
23 1742774 632 232.56 2227 19.61
24 1781534 668 291.28 2275 19.61
25 1849773 710 362.55 2363 19.61
26 1895721 476 129.76 2422 19.61
27 2027674 156 27.28 2565 19.18
28 2160368 323 58.48 2716 18.00
29 2161913 462 120.87 2739 19.61
30 2204502 99 21.91 2794 18.96
31 2348973 633 241.23 2958 19.61
32 2376092 67 18.51 3014 19.61
33 2517758 728 431.28 3161 19.61
34 2522105 743 466.23 3183 18.54
35 2636933 179 30.55 3302 18.96
36 2648281 526 158.17 3329 19.61
37 2754428 455 117.03 3449 19.61
38 2833260 679 318.29 3566 18.96
39 2997171 689 300.98 3715 19.61
40 3306371 678 274.92 4075 19.61
41 3340029 332 61.17 4130 19.61
42 3356443 718 366.73 4172 19.61
43 3391442 716 337.96 4237 19.61
44 3516469 729 380.02 4383 19.61
45 3598920 655 252.34 4482 19.61
46 3682002 740 403.54 4585 18.96
47 3728319 435 104.92 4661 19.61
48 3865366 588 183.26 4814 19.61
49 3950175 711 380.66 4914 19.61
50 4034245 696 307.73 5023 19.61
51 4045493 608 202.86 5058 19.61
52 4084931 632 232.56 5107 19.61
53 4086088 688 328.69 5133 19.61
54 4088076 752 487.99 5153 19.61
55 4181810 536 160.18 5267 19.61
56 4190196 551 164.56 5298 19.18
57 4272587 655 252.34 5396 19.61
58 4330751 369 73.42 5475 18.96
59 4426730 716 337.96 5606 19.61
60 4506610 327 59.28 5700 19.61
61 4812681 604 210.97 6015 19.61
62 4823429 270 46.71 6050 19.61
63 4865259 664 270.86 6120 19.61
64 4966124 588 183.26 6260 19.61
65 4975727 140 25.42 6293 19.61
66 5124992 127 24.18 6479 19.61
67 5450797 496 144.49 6819 19.61
68 5560056 743 466.23 6940 19.61
69 5626523 671 277.06 7024 18.32
70 5667825 179 30.55 7085 19.61
71 5797629 499 141.24 7250 19.61
72 5813840 273 47.25 7278 19.61
73 5869025 236 40.44 7350 19.61
74 5882413 448 112.41 7387 18.11
75 5900923 646 271.78 7419 19.61
76 5996961 852 907.33 7520 19.61
77 6054817 252 43.42 7614 19.61
78 6234925 387 81.05 7784 19.61
79 6293793 353 67.64 7855 19.18
80 6309352 783 633.54 7893 19.61
81 6512063 112 22.94 8129 19.61
82 6544650 451 113.08 8186 19.61
83 6544832 718 366.73 8210 19.61
84 6666333 803 573.92 8331 19.61
85 6880019 240 41.21 8583 19.61
86 6909482 856 997.78 8629 19.61
87 6911210 984 2123.45 8652 18.96
88 6997184 96 21.67 8765 18.96
89 7077643 743 466.23 8861 19.61
90 7148394 824 662.09 8955 19.61
91 7174284 372 74.27 9002 19.61
92 7404712 652 262.10 9238 19.61
93 7430021 127 24.18 9284 19.61
94 7544432 369 73.42 9416 19.61
95 7684386 798 700.68 9569 18.00
96 7718479 63 17.91 9627 18.00
97 7809956 609 211.41 9737 19.61
98 7817447 737 467.99 9769 19.61
99 8024244 376 76.43 9993 18.32
100 8106043 622 244.71 10102 18.00
101 8133769 688 328.69 10158 19.61
102 8140603 156 27.28 10181 19.18
103 8198184 120 23.58 10264 18.00
104 8239859 167 28.76 10338 18.00
105 8293008 696 307.73 10413 19.61
106 8311339 716 337.96 10454 19.61
107 8354518 771 600.02 10522 19.61
108 8447188 355 68.30 10637 18.00
109 8467803 664 270.86 10681 19.61
110 8472223 686 278.39 10708 19.61
111 8575409 355 68.30 10843 19.61
112 8673226 444 109.09 10962 19.61
113 8762074 608 202.86 11081 18.00
114 8830271 371 73.82 11175 18.00
115 8986366 451 113.08 11363 18.75
116 9000614 632 232.56 11395 18.54
117 9205503 376 76.43 11611 18.00
118 9225502 224 38.29 11660 19.61
119 9235263 384 80.08 11696 19.61
120 9383675 768 471.89 11880 18.00
121 9451344 127 24.18 11969 18.00
122 9693092 624 242.54 12245 19.61
123 9853912 371 73.82 12423 19.61
124 9901322 252 43.42 12493 18.00
125 10075211 152 26.78 12684 18.00
126 10280760 184 31.36 12899 19.61
127 10368498 444 109.09 13018 18.96
128 10408290 508 144.95 13076 19.61
129 10418282 595 212.63 13106 18.00
130 10453183 704 326.52 13154 18.00
131 10455751 691 332.16 13177 18.96
132 10457831 519 154.30 13199 18.00
133 10460045 444 109.09 13221 18.96
134 10497200 499 141.24 13283 18.00
135 10574344 423 97.36 13378 18.00
136 11009337 935 1425.97 13829 19.61
137 11065458 227 38.83 13920 18.11
138 11068860 736 412.77 13946 18.00
139 11140577 211 35.96 14039 18.00
140 11222839 79 20.03 14139 18.00
141 11243027 188 32.01 14180 18.00
142 11249642 156 27.28 14209 19.61
143 11255363 51 15.86 14235 18.00
144 11318016 307 54.48 14317 19.61
145 11411665 396 85.28 14414 18.00
146 11416239 707 320.63 14444 18.00
147 11426460 529 156.43 14476 18.00
148 11470743 414 93.93 14550 18.00
149 11538377 457 118.95 14631 18.00
150 11719327 688 328.69 14831 18.96
151 11729806 270 46.71 14858 18.54
152 11945444 207 35.26 15098 18.00
153 11976257 54 16.41 15151 19.18
154 12120464 704 326.52 15315 18.00
155 12153954 595 212.63 15387 18.00
156 12187631 499 141.24 15431 18.00
157 12247626 497 142.37 15513 18.00
158 12420446 423 97.36 15705 18.11
159 12502519 639 249.88 15815 18.96
160 12624368 158 27.53 15966 18.00
161 12631215 504 143.61 15993 18.00
162 12943863 172 29.49 16335 19.61
163 12989917 668 291.28 16400 18.00
164 13074891 515 147.53 16505 18.96
165 13204719 671 277.06 16652 18.00
166 13275373 180 30.71 16739 19.61
167 13278548 684 283.21 16764 18.96
168 13396026 652 262.10 16903 19.39
169 13439685 519 154.30 16970 18.11
170 13545269 723 388.29 17090 18.00
171 13564820 172 29.49 17127 18.00
172 13694622 385 80.11 17276 18.00
173 13737682 508 144.95 17354 18.96
174 13778897 487 132.65 17419 18.00
175 14037855 655 252.34 17675 17.35
176 14116295 304 53.73 17780 18.00
177 14185289 601 200.55 17876 17.35
178 14213399 743 466.23 17926 18.96
179 14220163 647 246.69 17952 17.35
180 14255773 496 144.49 18009 18.00
181 14261107 737 467.99 18034 18.00
182 14306589 664 270.86 18102 18.00
183 14309923 793 551.60 18128 18.32
184 14322934 167 28.76 18162 19.18
185 14350138 671 277.06 18214 18.00
186 14396072 131 24.54 18284 19.61
187 14497190 448 112.41 18398 19.18
188 14637980 462 120.87 18543 17.35
189 14860645 504 143.61 18786 18.96
190 14878506 127 24.18 18827 18.96
191 14881753 368 72.93 18852 18.00
192 14896022 728 431.28 18888 18.00
193 15076935 691 332.16 19104 18.00
194 15097150 430 101.41 19149 18.00
195 15104560 732 451.17 19180 18.96
196 15141864 704 326.52 19250 18.00
197 15217248 783 633.54 19361 17.35
198 15381563 432 101.61 19549 18.00
199 15409771 188 32.01 19598 18.00
200 15523233 472 125.87 19738 18.00
201 15663846 462 120.87 19886 18.00
202 15717411 608 202.86 19957 18.96
203 15736755 608 202.86 19992 18.00
204 15770862 492 134.92 20046 17.89
205 15957812 713 333.08 20264 18.54
206 15962211 280 48.67 20291 18.00
207 16089382 646 271.78 20432 18.96
208 16121828 483 132.60 20487 18.00
209 16252714 127 24.18 20630 18.00
210 16307930 243 41.74 20709 18.11
211 16430995 423 97.36 20851 17.35
212 16517145 492 134.92 20950 19.61
213 16810434 583 201.26 21285 18.00
214 16821322 319 57.64 21313 18.00
215 16829382 719 344.94 21342 19.61
216 16891388 124 23.92 21431 17.57
217 17038377 511 149.39 21581 18.00
218 17077638 711 380.66 21633 18.00
219 17082157 600 203.87 21656 18.96
220 17113955 817 712.06 21703 18.00
221 17202051 556 174.47 21798 18.00
222 17276890 688 328.69 21894 18.00
223 17327438 609 211.41 21965 18.00
224 17358727 419 97.20 22005 19.61
225 17445408 686 278.39 22132 18.00
226 17496920 524 150.73 22202 18.96
227 17551325 508 144.95 22276 17.35
228 17565742 697 299.81 22309 18.00
229 17590047 56 16.76 22348 18.00
230 17635798 691 332.16 22411 19.61
231 17803875 355 68.30 22601 18.32
232 17830512 376 76.43 22657 18.00
233 17947328 231 39.55 22780 18.96
234 18047352 748 436.69 22901 18.11
235 18125882 736 412.77 23003 19.61
236 18223136 688 328.69 23113 18.96
237 18230324 428 101.58 23144 18.21
238 18296080 654 259.18 23229 18.96
239 18356577 460 119.54 23305 18.96
240 18436265 352 66.89 23411 17.46
241 18549756 254 43.77 23535 19.61
242 18574016 481 129.57 23576 19.61
243 18590316 519 154.30 23616 18.00
244 18654222 448 112.41 23697 18.00
245 18831449 743 466.23 23894 18.00
246 18903838 435 104.92 23993 18.00
247 18917931 679 318.29 24036 18.00
248 18973034 676 282.10 24107 18.00
249 19008043 601 200.55 24164 18.96
250 19053232 696 307.73 24235 18.00
251 19059231 140 25.42 24263 18.00
252 19102033 560 175.34 24333 18.00
253 19166363 560 175.34 24433 18.96
254 19286156 675 317.99 24587 18.00
255 19765177 583 201.26 25077 18.00
256 19780472 79 20.03 25114 18.96
257 19909357 408 90.57 25259 18.00
258 19955987 596 194.19 25329 18.96
259 19986082 355 68.30 25386 18.00
260 20143957 647 246.69 25552 19.61
261 20157827 167 28.76 25585 18.00
262 20293968 604 210.97 25731 18.32
263 20324603 135 24.92 25780 19.18
264 20379618 368 72.93 25857 18.00
265 20390119 207 35.26 25889 18.00
266 20433057 697 299.81 25943 18.00
267 20472254 448 112.41 26008 17.35
268 20545248 179 30.55 26110 18.32
269 20687963 440 109.25 26286 18.00
270 20697684 433 104.37 26320 18.32
271 20713799 199 33.86 26360 19.61
272 21084301 143 25.74 26742 18.11
273 21156578 792 615.27 26835 18.75
274 21160305 728 431.28 26858 18.00
275 21166493 542 168.67 26884 18.96
276 21185898 387 81.05 26925 17.57
277 21265547 696 307.73 27016 18.00
278 21343399 81 20.25 27109 17.68
279 21608925 401 87.91 27387 18.00
280 21616741 444 109.09 27415 18.00
281 21657848 335 61.77 27492 19.61
282 21667210 472 125.87 27521 18.00
283 21673027 638 261.42 27548 18.00
284 21766706 681 309.95 27645 18.11
285 21803780 691 332.16 27704 17.46
286 21808255 639 249.88 27732 18.00
287 21817513 376 76.43 27764 18.00
288 22242457 627 249.17 28180 19.61
289 22253398 558 172.78 28206 18.00
290 22270470 696 307.73 28245 18.54
291 22394992 480 130.21 28388 17.78
292 22397503 248 42.69 28409 18.00
293 22408139 659 253.36 28441 19.61
294 22576842 255 43.96 28640 18.00
295 22577370 270 46.71 28664 18.96
296 22669839 575 187.30 28791 18.00
297 22749667 675 317.99 28897 18.54
298 22886941 428 101.58 29053 19.61
299 22917544 716 337.96 29103 18.96
300 23183123 511 149.39 29373 18.00
301 23283493 280 48.67 29487 18.96
302 23312470 353 67.64 29540 19.61
303 23390668 755 529.80 29645 19.61
304 23490396 108 22.63 29764 18.00
305 23593762 284 49.41 29897 18.00
306 23697810 668 291.28 30013 19.39
307 23766430 444 109.09 30105 18.00
308 23837908 408 90.57 30209 19.61
309 23843773 192 32.67 30237 18.00
310 23889688 732 451.17 30302 18.00
311 23948675 732 451.17 30395 18.96
312 24117832 428 101.58 30598 18.00
313 24169800 728 431.28 30664 17.68
314 24188694 270 46.71 30710 18.00
315 24376953 195 33.17 30916 18.32
316 24473542 415 95.00 31018 18.32
317 24582683 391 82.35 31139 18.00
318 24587743 700 294.28 31165 18.00
319 24799982 451 113.08 31378 17.78
320 24810569 174 29.79 31410 18.00
321 24852966 391 82.35 31467 18.00
322 24855030 670 272.62 31489 18.00
323 24878339 760 464.80 31543 18.32
324 24910049 319 57.64 31607 18.00
325 25024404 638 261.42 31730 17.35
326 25030270 704 326.52 31753 18.96
327 25266070 448 112.41 31995 17.68
328 25320879 348 65.64 32057 18.00
329 25357922 440 109.25 32117 17.35
330 25403743 337 62.30 32193 18.00
331 25542029 679 318.29 32350 18.00
332 25631840 504 143.61 32457 18.32
333 25673270 236 40.44 32517 18.00
334 25703837 664 270.86 32575 18.32
335 25729027 688 328.69 32631 18.00
336 25907869 175 29.94 32847 18.00
337 26020251 723 388.29 32989 18.00
338 26031366 624 242.54 33018 18.00
339 26032124 654 259.18 33039 19.61
340 26104682 521 150.31 33130 18.00
341 26495350 304 53.73 33542 18.21
342 26517162 679 318.29 33575 18.00
343 26582330 527 155.96 33655 18.00
344 26678356 688 328.69 33801 18.96
345 26689198 460 119.54 33835 18.00
346 26980175 828 633.98 34142 18.00
347 27068678 743 466.23 34243 18.00
348 27095958 384 80.08 34281 18.21
349 27133677 728 431.28 34333 18.32
350 27149276 510 148.47 34371 18.96
351 27251246 655 252.34 34497 17.35
352 27266605 179 30.55 34536 18.00
353 27311521 711 380.66 34593 19.61
354 27337594 71 19.06 34638 17.46
355 27353748 675 317.99 34677 18.00
356 27385946 214 36.49 34727 18.11
357 27569675 60 17.43 34931 18.00
358 27637151 355 68.30 35015 18.00
359 27653749 448 112.41 35048 18.00
360 27766144 803 573.92 35185 18.00
361 27919071 643 246.01 35355 17.35
362 27938275 135 24.92 35392 18.00
363 27995990 684 283.21 35464 18.00
364 28109441 604 210.97 35587 18.11
365 28279541 756 506.34 35792 18.00
366 28298406 280 48.67 35829 18.00
367 28392310 51 15.86 35951 18.96
368 28529798 704 326.52 36104 18.00
369 28673336 799 620.61 36270 18.00
370 28742100 536 160.18 36370 18.00
371 28778035 240 41.21 36420 19.61
372 28789852 454 115.28 36454 18.00
373 28832012 327 59.28 36523 18.00
374 28855709 668 291.28 36574 19.61
375 29101880 780 538.09 36806 18.00
376 29114742 472 125.87 36837 18.96
377 29258763 536 160.18 37010 18.00
378 29277114 353 67.64 37045 17.78
379 29313693 711 380.66 37098 18.00
380 29355989 652 262.10 37147 17.35
381 29491021 472 125.87 37308 18.00
382 29494150 494 141.37 37332 18.00
383 29704207 262 45.24 37563 18.54
384 29738493 543 164.77 37624 18.00
385 29759164 799 620.61 37673 18.00
386 29777498 57 16.93 37708 18.11
387 29990864 665 286.02 37942 18.00
388 30129835 659 253.36 38110 18.00
389 30185529 71 19.06 38192 18.54
390 30515780 632 232.56 38534 18.00
391 30581772 728 431.28 38616 18.00
392 30634515 384 80.08 38692 18.96
393 30664375 440 109.25 38737 17.35
394 30768688 723 388.29 38875 18.00
395 30797124 399 87.30 38919 19.61
396 30816418 231 39.55 38953 18.00
397 30895803 708 363.68 39048 17.35
398 30920098 622 244.71 39100 18.00
399 30949980 159 27.66 39154 18.00
400 31390525 688 328.69 39608 18.00
401 31448048 639 249.88 39679 18.00
402 31448094 732 451.17 39700 18.00
403 31483426 729 380.02 39752 17.35
404 31505236 327 59.28 39793 18.00
405 31605233 639 249.88 39897 17.35
406 31793610 396 85.28 40127 18.00
407 31855809 551 164.56 40219 18.00
408 31926540 60 17.43 40313 18.00
409 32020553 92 21.32 40432 18.00
410 32088110 743 466.23 40531 17.78
411 32096549 496 144.49 40555 18.00
412 32372980 198 33.69 40847 18.00
413 32384535 524 150.73 40879 18.00
414 32665333 422 97.97 41158 18.00
415 32705135 499 141.24 41232 19.61
416 32773464 671 277.06 41310 18.00
417 32803792 158 27.53 41366 19.18
418 32812457 448 112.41 41396 17.35
419 32909329 777 596.45 41506 18.00
420 33004170 654 259.18 41615 18.96
421 33023135 772 477.84 41654 17.57
422 33145003 480 130.21 41793 17.35
423 33247616 70 18.93 41906 18.00
424 33460708 716 337.96 42110 18.96
425 33531252 216 36.85 42195 18.00
426 33630046 435 104.92 42315 18.00
427 33816516 159 27.66 42542 19.61
428 33986082 348 65.64 42704 18.00
429 33991610 384 80.08 42732 17.35
430 34178037 705 364.03 42934 18.00
431 34285573 649 269.34 43077 18.00
432 34333455 192 32.67 43149 18.00
433 34346655 284 49.41 43182 19.39
434 34493521 259 44.69 43335 18.00
435 34519304 412 92.93 43379 18.00
436 34601301 435 104.92 43465 17.57
437 34693577 728 431.28 43571 18.00
438 34738954 348 65.64 43636 18.00
439 34762049 316 56.81 43679 18.00
440 34793960 671 277.06 43727 18.00
441 34883416 51 15.86 43838 17.57
442 34886497 335 61.77 43862 17.35
443 34927418 81 20.25 43916 18.00
444 34951671 384 80.08 43962 18.00
445 35020278 582 193.83 44054 17.35
446 35067599 688 328.69 44121 17.68
447 35111662 671 277.06 44187 18.96
448 35212285 428 101.58 44311 18.00
449 35451904 739 495.61 44571 18.00
450 35561891 444 109.09 44724 18.00
451 35612796 352 66.89 44801 18.00
452 35703564 543 164.77 44922 18.32
453 35853629 184 31.36 45106 17.35
454 35948868 700 294.28 45226 17.35
455 36025140 376 76.43 45331 18.00
456 36504918 390 82.70 45839 19.61
457 36533431 403 88.99 45896 18.00
458 36767149 276 47.87 46142 18.00
459 36787587 462 120.87 46191 17.35
460 36934246 668 291.28 46361 18.00
461 36972226 655 252.34 46431 19.61
462 37227936 847 662.39 46710 17.46
463 37275079 444 109.09 46790 18.00
464 37335188 768 471.89 46877 19.61
465 37446986 486 135.98 47011 18.00
466 37459465 190 32.33 47043 17.35
467 37486055 270 46.71 47084 17.35
468 37548336 280 48.67 47158 17.35
469 37582550 387 81.05 47214 19.18
470 37742233 595 212.63 47411 19.18
471 37817258 601 200.55 47501 18.21
472 37821293 675 317.99 47527 18.96
473 37844469 736 412.77 47583 17.78
474 37934962 241 41.39 47701 18.00
475 37977496 143 25.74 47765 18.00
476 38012258 384 80.08 47823 18.00
477 38021711 697 299.81 47856 17.35
478 38061102 344 64.67 47919 17.35
479 38101826 56 16.76 47978 19.39
480 38109647 736 412.77 48008 17.35
481 38534085 696 307.73 48458 17.35
482 38539668 527 155.96 48482 18.00
483 38622931 295 51.75 48572 18.00
484 38782268 286 49.78 48750 18.00
485 38838467 632 232.56 48822 18.21
486 38875965 716 337.96 48876 18.00
487 38878835 510 148.47 48900 18.00
488 38922122 159 27.66 48950 17.57
489 38934452 105 22.39 48985 18.00
490 39138246 393 83.55 49197 18.00
491 39229998 487 132.65 49310 18.00
492 39346913 313 56.02 49447 18.00
493 39519868 188 32.01 49625 18.00
494 39621604 670 272.62 49741 18.00
495 39657135 668 291.28 49794 18.00
496 39823096 63 17.91 49994 18.00
497 39949160 707 320.63 50144 18.00
498 39952017 441 109.77 50169 18.00
499 39974617 419 97.20 50215 17.35
500 40168083 368 72.93 50434 17.35
501 40269673 659 253.36 50554 17.35
502 40293124 708 363.68 50603 18.00
503 40388325 719 344.94 50721 17.35
504 40417270 753 514.96 50769 18.00
505 40486732 768 471.89 50873 18.00
506 40499384 415 95.00 50900 18.00
507 40519751 654 259.18 50939 17.35
508 40526360 739 495.61 50964 18.21
509 40531513 679 318.29 50990 19.61
510 40829111 286 49.78 51315 18.00
511 40861193 440 109.25 51375 18.00
512 40862887 295 51.75 51397 17.35
513 40910200 771 600.02 51469 17.35
514 40936958 632 232.56 51516 18.00
515 41070570 238 40.82 51665 18.11
516 41074379 307 54.48 51690 18.00
517 41133614 716 337.96 51773 18.00
518 41304871 728 431.28 51982 17.35
519 41376866 472 125.87 52068 18.00
520 41390895 399 87.30 52100 18.00
521 41556842 679 318.29 52300 18.00
522 41587911 286 49.78 52353 18.00
523 41715966 68 18.65 52509 18.00
524 41800723 512 144.44 52617 18.96
525 41855724 355 68.30 52679 17.35
526 41920129 728 431.28 52772 18.00
527 41938338 496 144.49 52809 17.35
528 42010803 268 46.26 52896 16.71
529 42406628 664 270.86 53287 17.35
530 42469351 513 148.53 53375 18.00
531 42521141 675 317.99 53440 18.00
532 42587086 543 164.77 53527 18.54
533 42590243 732 451.17 53555 17.78
534 42712342 558 172.78 53695 17.35
535 42866541 56 16.76 53873 18.00
536 42907119 384 80.08 53933 17.35
537 42953676 670 272.62 54000 18.00
538 42978314 505 145.23 54049 18.00
539 43059792 728 431.28 54133 18.00
540 43102443 163 28.20 54195 18.00
541 43168972 529 156.43 54279 18.00
542 43200955 736 412.77 54334 17.35
543 43207074 259 44.69 54361 17.35
544 43490850 665 286.02 54633 18.00
545 43520762 620 217.12 54677 18.00
546 43579069 240 41.21 54763 18.00
547 43817373 582 193.83 55054 17.35
548 43854782 492 134.92 55108 18.96
549 43871978 145 25.96 55141 17.35
550 43930314 636 231.85 55208 18.32
551 43984710 166 28.62 55285 17.35
552 44219014 659 253.36 55518 18.96
553 44262351 505 145.23 55580 18.00
554 44439794 704 326.52 55779 18.00
555 44605805 684 283.21 55948 18.00
556 44634101 728 431.28 55993 18.00
557 44729787 422 97.97 56100 17.35
558 44846166 457 118.95 56227 18.00
559 44935119 222 37.96 56334 18.21
560 44977682 408 90.57 56406 18.00
561 45033614 193 32.84 56491 19.39
562 45056407 403 88.99 56532 18.00
563 45079851 67 18.51 56586 17.35
564 45328214 364 71.71 56865 18.11
565 45446965 684 283.21 56991 17.14
566 45512306 88 20.96 57072 17.78
567 45543128 112 22.94 57116 16.92
568 45574918 444 109.09 57166 18.32
569 45617555 652 262.10 57242 16.71
570 45685496 719 344.94 57326 18.00
571 45801672 750 418.67 57463 18.00
572 45962388 255 43.96 57636 18.21
573 46031936 647 246.69 57718 17.35
574 46045248 440 109.25 57757 18.00
575 46172909 295 51.75 57904 18.00
576 46275887 108 22.63 58016 17.35
577 46379865 163 28.20 58141 16.92
578 46482552 742 406.60 58251 18.00
579 46635231 543 164.77 58426 18.00
580 46655182 729 380.02 58462 16.92
581 46705745 739 495.61 58526 17.35
582 46755769 617 223.47 58604 18.00
583 46823763 271 46.93 58689 16.92
584 46903616 67 18.51 58779 18.00
585 46995405 679 318.29 58880 18.00
586 47034313 729 380.02 58945 16.71
587 47050462 188 32.01 58979 18.00
588 47052977 591 188.65 59004 18.00
589 47138057 568 189.84 59098 16.71
590 47323093 639 249.88 59293 17.35
591 47420087 748 436.69 59401 18.00
592 47508415 732 451.17 59511 18.00
593 47565055 376 76.43 59584 18.96
594 47718833 243 41.74 59767 17.14
595 48105029 435 104.92 60171 17.14
596 48109084 248 42.69 60197 17.57
597 48164361 359 69.86 60274 18.00
598 48165920 419 97.20 60298 16.71
599 48242128 679 318.29 60395 17.57
600 48268833 615 227.36 60444 18.00
601 48286886 857 901.16 60479 18.00
602 48335590 708 363.68 60548 18.00
603 48382985 700 294.28 60630 18.21
604 48394358 591 188.65 60663 17.78
605 48446765 780 538.09 60740 16.71
606 48506451 707 320.63 60827 18.00
607 48655911 398 85.63 60983 17.35
608 48670058 448 112.41 61010 18.00
609 48743282 588 183.26 61104 18.75
610 48900403 537 162.17 61250 17.78
611 49111276 472 125.87 61483 16.71
612 49186776 536 160.18 61565 17.35
613 49274815 337 62.30 61663 18.00
614 49278237 537 162.17 61688 17.35
615 49294327 707 320.63 61726 17.35
616 49404321 504 143.61 61866 16.71
617 49523286 496 144.49 62018 17.35
618 49526839 519 154.30 62040 17.35
619 49604078 519 154.30 62137 18.00
620 49682217 627 249.17 62229 18.00
621 49690442 199 33.86 62257 18.00
622 49852880 504 143.61 62425 16.71
623 50038824 678 274.92 62637 18.00
624 50223991 452 114.20 62850 18.00
625 50493051 561 174.17 63135 17.35
626 50500097 716 337.96 63165 18.00
627 50502701 312 55.68 63186 17.78
628 50526137 415 95.00 63231 18.00
629 50550935 399 87.30 63275 17.35
630 50557647 454 115.28 63303 18.96
631 50608241 334 61.44 63395 16.71
632 50614932 199 33.86 63420 18.96
633 50802767 391 82.35 63621 18.00
634 50940211 728 431.28 63767 16.71
635 50958199 96 21.67 63799 18.00
636 51096306 527 155.96 63964 17.35
637 51201402 691 332.16 64101 18.00
638 51256198 312 55.68 64186 17.35
639 51336095 60 17.43 64270 18.00
640 51411943 588 183.26 64368 17.35
641 51501245 639 249.88 64481 17.57
642 51643924 606 221.61 64631 18.00
643 51777007 263 45.37 64776 18.00
644 51829118 689 300.98 64851 17.14
645 51854765 108 22.63 64904 18.54
646 52021095 152 26.78 65077 18.00
647 52092714 344 64.67 65171 17.35
648 52184425 756 506.34 65290 16.71
649 52211866 664 270.86 65343 18.54
650 52256063 467 121.56 65422 18.00
651 52320399 510 148.47 65494 18.00
652 52330223 432 101.61 65522 17.35
653 52512614 716 337.96 65723 16.71
654 52533828 739 495.61 65770 17.35
655 52536204 412 92.93 65793 17.35
656 52649507 463 119.23 65932 16.71
657 52806585 71 19.06 66117 18.00
658 52808609 515 147.53 66140 18.00
659 52877120 271 46.93 66241 17.35
660 53224557 511 149.39 66607 16.71
661 53315968 540 166.11 66726 17.35
662 53334766 399 87.30 66764 17.35
663 53463562 438 107.18 66915 18.00
664 53506887 295 51.75 66978 18.32
665 53550576 216 36.85 67045 18.11
666 53565347 384 80.08 67081 18.00
667 53635382 684 283.21 67176 17.35
668 53652523 734 439.08 67215 18.00
669 53729540 684 283.21 67309 18.00
670 53794258 704 326.52 67386 18.00
671 53821777 704 326.52 67437 17.35
672 54220955 268 46.26 67854 18.00
673 54256438 350 66.46 67923 17.78
674 54438211 686 278.39 68110 17.35
675 54496943 419 97.20 68199 17.35
676 54518133 216 36.85 68248 17.35
677 54541480 620 217.12 68291 17.35
678 54543961 664 270.86 68315 18.00
679 54704416 455 117.03 68489 17.35
680 54809614 675 317.99 68599 18.00
681 54954941 624 242.54 68753 18.00
682 54995088 275 47.73 68816 17.68
683 54998302 515 147.53 68841 18.00
684 55017803 327 59.28 68878 17.35
685 55037209 473 126.29 68922 17.14
686 55133074 401 87.91 69032 18.00
687 55227909 575 187.30 69152 16.71
688 55241914 639 249.88 69185 18.00
689 55248142 76 19.69 69210 18.00
690 55304784 729 380.02 69286 18.00
691 55398875 527 155.96 69403 17.35
692 55401244 775 556.41 69425 17.35
693 55413453 339 62.98 69460 18.00
694 55453587 655 252.34 69522 18.00
695 55484875 97 21.75 69577 18.00
696 55519529 692 305.66 69626 16.71
697 55559096 492 134.92 69674 18.00
698 55676404 372 74.27 69804 17.35
699 55754036 540 166.11 69903 17.35
700 55906394 707 320.63 70055 17.35
701 55911671 492 134.92 70082 16.71
702 56126656 430 101.41 70329 17.35
703 56154366 263 45.37 70375 18.00
704 56319244 819 689.10 70555 16.71
705 56423189 575 187.30 70687 17.14
706 56459630 211 35.96 70746 16.92
707 56472136 686 278.39 70778 18.00
708 56502724 486 135.98 70830 16.71
709 56508445 671 277.06 70856 18.00
710 56615176 718 366.73 70976 18.00
711 56675698 423 97.36 71060 16.71
712 56762570 639 249.88 71175 17.35
713 57094985 472 125.87 71515 16.71
714 57111001 192 32.67 71547 18.11
715 57331229 639 249.88 71781 18.00
716 57389920 236 40.44 71852 16.71
717 57471103 719 344.94 71938 18.00
718 57512020 564 178.37 72003 17.35
719 57522111 131 24.54 72030 16.71
720 57576824 723 388.29 72106 16.71
721 57628142 483 132.60 72175 18.96
722 57700839 719 344.94 72267 18.00
723 57734011 736 412.77 72316 16.71
724 57780425 655 252.34 72388 16.71
725 57783252 575 187.30 72410 16.71
726 57784331 353 67.64 72433 16.71
727 57805289 710 362.55 72483 18.00
728 57836576 419 97.20 72524 16.71
729 57847702 430 101.41 72564 18.00
730 57864439 99 21.91 72602 18.00
731 57953841 678 274.92 72707 16.71
732 57987748 449 112.05 72747 17.35
733 58195752 664 270.86 72961 18.96
734 58262773 190 32.33 73039 18.00
735 58327655 611 211.89 73128 18.00
736 58337119 374 75.61 73159 17.35
737 58373294 624 242.54 73209 18.00
738 58405559 639 249.88 73258 18.00
739 58422811 467 121.56 73290 16.71
740 58442522 275 47.73 73326 17.57
741 58454520 240 41.21 73364 17.35
742 58657231 307 54.48 73575 18.00
743 58795624 323 58.48 73723 16.71
744 58919400 463 119.23 73888 16.71
745 59006434 275 47.73 74001 18.00
746 59028442 188 32.01 74043 18.00
747 59029474 707 320.63 74064 18.00
748 59120583 297 52.13 74173 18.00
749 59149620 633 241.23 74225 18.00
750 59489106 451 113.08 74576 16.71
751 59601614 111 22.86 74693 16.71
752 59649143 312 55.68 74759 17.35
753 59739528 696 307.73 74887 18.00
754 59810014 664 270.86 74980 17.78
755 59902748 679 318.29 75093 16.71
756 60055722 668 291.28 75258 17.14
757 60073060 857 901.16 75299 16.71
758 60088102 550 172.20 75332 18.00
759 60176310 707 320.63 75442 18.00
760 60228645 280 48.67 75508 16.92
761 60241851 679 318.29 75546 18.00
762 60456043 384 80.08 75777 16.71
763 60567754 295 51.75 75924 18.00
764 60604272 451 113.08 75986 18.00
765 60679099 624 242.54 76080 16.71
766 60695892 719 344.94 76120 18.00
767 60879567 220 37.58 76318 16.71
768 60893190 408 90.57 76350 16.71
769 60943954 271 46.93 76416 18.00
770 60952870 728 431.28 76448 18.00
771 61214940 440 109.25 76735 18.00
772 61279303 560 175.34 76827 17.35
773 61343859 480 130.21 76914 18.00
774 61369291 415 95.00 76959 16.71
775 61437079 737 467.99 77035 18.00
776 61529919 668 291.28 77147 18.00
777 61541939 676 282.10 77176 16.71
778 61563157 112 22.94 77212 16.71
779 61669902 487 132.65 77336 18.00
780 61716077 92 21.32 77394 16.71
781 61777471 387 81.05 77473 18.00
782 61928717 671 277.06 77652 18.00
783 61955750 737 467.99 77704 16.71
784 61959965 476 129.76 77731 18.00
785 61981430 56 16.76 77778 16.71
786 61986304 655 252.34 77804 16.71
787 62068602 718 366.73 77901 18.00
788 62146157 620 217.12 77987 16.71
789 62253830 327 59.28 78118 16.92
790 62347053 580 202.61 78230 18.00
791 62568123 647 246.69 78463 18.00
792 62629066 560 175.34 78551 16.71
793 62662388 792 615.27 78604 17.35
794 62762747 670 272.62 78726 17.57
795 62775257 792 615.27 78759 18.00
796 62795370 713 333.08 78805 18.00
797 62953263 147 26.19 78975 18.00
798 63051362 448 112.41 79093 17.35
799 63140350 307 54.48 79202 17.14
800 63148324 748 436.69 79232 16.92
801 63246628 547 162.22 79356 18.00
802 63247514 345 64.98 79378 16.71
803 63346944 415 95.00 79491 17.35
804 63365730 92 21.32 79533 17.35
805 63375673 92 21.32 79560 18.00
806 63479200 396 85.28 79684 18.00
807 63494996 671 277.06 79730 16.71
808 63559464 748 436.69 79809 17.35
809 63609192 178 30.40 79884 17.35
810 63737511 627 249.17 80042 16.71
811 63746993 704 326.52 80069 18.00
812 63752417 408 90.57 80096 17.35
813 63829760 425 99.48 80211 16.71
814 63859816 236 40.44 80267 18.00
815 63968490 97 21.75 80394 16.71
816 64047976 211 35.96 80494 18.00
817 64250762 406 89.20 80716 16.71
818 64375858 670 272.62 80873 18.00
819 64382403 624 242.54 80898 17.78
820 64514615 231 39.55 81047 16.71
821 64540444 391 82.35 81093 17.35
822 64580010 696 307.73 81145 18.00
823 64804814 760 464.80 81380 16.71
824 64909016 444 109.09 81499 18.00
825 64958398 760 464.80 81566 17.35
826 64969870 760 464.80 81595 18.00
827 65066228 352 66.89 81711 18.00
828 65070669 312 55.68 81735 18.00
829 65188416 316 56.81 81871 18.00
830 65190393 177 30.25 81894 18.00
831 65196921 376 76.43 81919 18.00
832 65390526 359 69.86 82122 18.00
833 65465867 704 326.52 82217 18.00
834 65470473 684 283.21 82244 18.00
835 65516583 707 320.63 82312 16.71
836 65578108 728 431.28 82405 17.35
837 65630206 270 46.71 82473 18.00
838 65775919 655 252.34 82632 16.71
839 65835062 486 135.98 82697 18.00
840 65897582 787 674.49 82789 18.21
841 65951717 556 174.47 82873 18.00
842 65980611 335 61.77 82921 16.71
843 65991872 665 286.02 82953 17.35
844 66225952 718 366.73 83173 18.00
845 66337880 664 270.86 83298 18.00
846 66346063 300 52.79 83326 17.78
847 66494470 422 97.97 83504 18.00
848 66624338 671 277.06 83651 18.00
849 66697011 780 538.09 83736 18.75
850 66792683 531 160.62 83859 18.00
851 67028313 671 277.06 84101 18.00
852 67088732 396 85.28 84177 17.35
853 67236378 415 95.00 84348 18.00
854 67330319 728 431.28 84456 17.35
855 67479203 487 132.65 84616 17.35
856 67480795 540 166.11 84639 18.00
857 67596140 608 202.86 84755 18.75
858 67796417 600 203.87 84974 18.00
859 67851829 504 143.61 85052 17.35
860 67873706 540 166.11 85092 18.00
861 68011066 368 72.93 85227 18.00
862 68163869 92 21.32 85396 18.96
863 68263066 688 328.69 85535 16.71
864 68285536 521 150.31 85584 18.32
865 68289020 240 41.21 85607 19.18
866 68294966 240 41.21 85633 17.35
867 68354202 536 160.18 85712 17.35
868 68359499 483 132.60 85738 18.00
869 68779981 711 380.66 86165 17.35
870 68797472 56 16.76 86202 18.00
871 68920640 719 344.94 86349 18.00
872 69021244 489 138.11 86457 17.78
873 69155604 707 320.63 86612 18.00
874 69339094 711 380.66 86782 18.00
875 69472240 83 20.46 86936 18.21
876 69547769 409 91.12 87028 18.00
877 69663314 668 291.28 87174 18.00
878 70017381 704 326.52 87518 17.35
879 70082978 588 183.26 87610 17.35
880 70259663 209 35.61 87805 18.54
881 70300026 487 132.65 87860 18.96
882 70403947 76 19.69 87980 17.35
883 70558415 188 32.01 88153 17.46
884 70699367 579 187.32 88302 18.00
885 71148807 252 43.42 88761 18.11
886 71185763 568 189.84 88818 18.00
887 71346046 275 47.73 88990 18.00
888 71394817 664 270.86 89053 17.35
889 71405089 127 24.18 89087 18.11
890 71477266 870 765.05 89167 18.32
891 71519489 668 291.28 89246 18.00
892 71658596 268 46.26 89432 18.00
893 71698080 560 175.34 89504 19.61
894 71911109 768 471.89 89713 18.00
895 71940199 440 109.25 89761 19.61
896 71947903 678 274.92 89790 19.61
897 72161420 83 20.46 90046 18.00
898 72162138 593 187.91 90068 19.39
899 72197694 732 451.17 90119 18.00
900 72302854 332 61.17 90240 17.35
901 72512665 255 43.96 90470 19.61
902 72537655 748 436.69 90514 18.00
903 72552383 163 28.20 90547 19.18
904 72659486 787 674.49 90649 18.00
905 72719539 760 464.80 90728 18.96
906 72759794 399 87.30 90789 18.00
907 72799427 679 318.29 90843 18.96
908 72861396 452 114.20 90924 18.00
909 72892662 615 227.36 90980 19.61
910 73005963 824 662.09 91101 18.00
911 73029853 707 320.63 91141 19.39
912 73060788 543 164.77 91190 18.00
913 73092565 620 217.12 91243 18.00
914 73093246 275 47.73 91263 17.57
915 73184027 243 41.74 91366 19.39
916 73213613 211 35.96 91424 19.61
917 73336090 515 147.53 91564 18.00
918 73391147 604 210.97 91639 18.32
919 73426844 480 130.21 91701 18.32
920 73497908 639 249.88 91795 17.35
921 73571268 412 92.93 91888 19.61
922 73650922 856 997.78 91985 17.35
923 73677170 568 189.84 92039 19.61
924 73706078 620 217.12 92089 18.00
925 73850077 108 22.63 92261 19.61
926 73874158 359 69.86 92304 18.00
927 73904872 368 72.93 92353 18.00
928 73930526 684 283.21 92398 18.96
929 73994308 696 307.73 92481 18.00
930 74074395 704 326.52 92577 18.32
931 74129889 646 271.78 92644 18.00
932 74146927 441 109.77 92683 18.54
933 74198905 438 107.18 92757 18.00
934 74424134 384 80.08 93012 18.00
935 74499988 608 202.86 93091 18.96
936 74615039 103 22.23 93206 18.00
937 74737944 664 270.86 93343 18.96
938 74786308 691 332.16 93415 19.61
939 75022541 728 431.28 93668 18.96
940 75080786 422 97.97 93751 18.96
941 75151463 92 21.32 93837 19.61
942 75188844 752 487.99 93897 18.00
943 75192808 655 252.34 93924 18.00
944 75202097 753 514.96 93953 18.96
945 75205149 748 436.69 93974 19.61
946 75321246 480 130.21 94108 17.35
947 75327357 164 28.34 94133 18.00
948 75356608 732 451.17 94185 18.00
949 75391076 632 232.56 94245 19.61
950 75486483 78 19.92 94373 18.00
951 75661700 83 20.46 94582 18.96
952 75724975 628 245.27 94661 18.00
953 75731397 304 53.73 94691 18.75
954 75732831 787 674.49 94713 18.00
955 75810195 508 144.95 94823 19.61
956 75859320 711 380.66 94893 19.61
957 75928950 707 320.63 94967 18.00
958 76043825 255 43.96 95101 19.61
959 76151543 348 65.64 95236 18.00
960 76153041 713 333.08 95257 18.96
961 76167650 688 328.69 95292 18.00
962 76229066 708 363.68 95375 18.96
963 76229697 579 187.32 95397 17.35
964 76254318 414 93.93 95438 18.75
965 76397743 467 121.56 95609 18.32
966 76470806 678 274.92 95699 19.61
967 76486794 582 193.83 95740 18.00
968 76563843 684 283.21 95829 18.00
969 76599986 655 252.34 95884 18.00
970 76606537 88 20.96 95914 18.00
971 76616215 462 120.87 95948 19.61
972 76916837 718 366.73 96285 19.61
973 76932314 659 253.36 96327 18.96
974 76940882 460 119.54 96361 19.61
975 77002306 480 130.21 96451 19.61
976 77050227 793 551.60 96520 19.61
977 77153609 327 59.28 96651 18.00
978 77158532 387 81.05 96679 18.43
979 77179081 664 270.86 96727 19.61
980 77194818 472 125.87 96765 18.00
981 77336141 303 53.47 96926 18.75
982 77367580 664 270.86 96978 18.54
983 77606706 79 20.03 97246 18.00
984 77707279 432 101.61 97351 19.61
985 77739603 103 22.23 97407 18.00
986 77781704 719 344.94 97469 19.61
987 77827844 711 380.66 97545 18.00
988 77850890 313 56.02 97593 17.35
989 78045597 312 55.68 97795 18.96
990 78161680 659 253.36 97933 18.00
991 78374500 467 121.56 98150 19.61
992 78428586 671 277.06 98213 18.00
993 78501468 195 33.17 98317 18.00
994 78589175 440 109.25 98426 19.61
995 78634054 638 261.42 98492 18.96
996 78766096 678 274.92 98646 18.00
997 78833733 536 160.18 98724 19.61
998 78861594 487 132.65 98769 19.39
999 78862241 728 431.28 98791 18.54
1000 79029760 671 277.06 98983 18.00
1001 79089224 444 109.09 99060 18.00
1002 79166853 671 277.06 99158 18.00
1003 79183278 652 262.10 99197 18.96
1004 79223247 615 227.36 99258 19.61
1005 79373953 670 272.62 99396 18.00
1006 79522856 639 249.88 99576 17.35
1007 79688940 668 291.28 99741 18.00
1008 79719771 655 252.34 99786 18.00
1009 79804268 273 47.25 99894 17.57
1010 79931056 572 183.73 100052 17.35
1011 79985564 463 119.23 100130 18.32
1012 80003824 718 366.73 100163 18.11
1013 80037486 624 242.54 100218 17.35
1014 80111525 486 135.98 100315 18.32
1015 80140356 708 363.68 100362 18.96
1016 80180821 560 175.34 100422 19.61
1017 80241821 254 43.77 100510 17.78
1018 80252640 179 30.55 100543 18.54
1019 80370750 516 149.64 100693 18.21
1020 80401682 527 155.96 100745 18.00
1021 80423324 595 212.63 100780 18.00
1022 80503998 600 203.87 100876 18.00
1023 80542492 492 134.92 100927 18.00
1024 80730533 480 130.21 101137 18.00
1025 80823256 515 147.53 101271 18.00
1026 80844193 711 380.66 101312 18.96
1027 81111844 688 328.69 101576 18.96
1028 81122086 679 318.29 101605 17.35
1029 81257203 255 43.96 101770 18.00
1030 81317245 384 80.08 101849 19.61
1031 81516572 97 21.75 102079 18.00
1032 81605261 671 277.06 102192 18.11
1033 81976840 736 412.77 102578 18.96
1034 82021039 743 466.23 102646 17.78
1035 82051457 396 85.28 102708 18.00
1036 82051988 775 556.41 102729 17.35
1037 82303173 480 130.21 102986 18.96
1038 82327859 614 229.43 103031 18.96
1039 82336894 664 270.86 103065 18.00
1040 82344076 691 332.16 103095 17.35
1041 82370243 435 104.92 103143 18.00
1042 82562201 689 300.98 103328 17.68
1043 82576923 684 283.21 103364 18.96
1044 82586468 716 337.96 103392 19.61
1045 82704118 167 28.76 103515 18.96
1046 82733708 480 130.21 103578 18.32
1047 82777145 716 337.96 103636 18.00
1048 82870577 192 32.67 103753 19.18
1049 82956022 207 35.26 103882 18.00
1050 82966397 454 115.28 103920 19.61
1051 83063573 79 20.03 104025 17.57
1052 83102748 307 54.48 104088 18.00
1053 83115062 750 418.67 104120 18.00
1054 83205812 657 260.46 104244 18.00
1055 83220834 716 337.96 104278 18.00
1056 83256930 422 97.97 104329 18.00
1057 83262292 728 431.28 104358 18.75
1058 83262969 768 471.89 104381 18.00
1059 83588978 686 278.39 104708 18.00
1060 83602210 697 299.81 104746 18.00
1061 83641149 515 147.53 104807 19.61
1062 83818467 686 278.39 105012 19.61
1063 83963700 391 82.35 105197 19.61
1064 83975902 728 431.28 105227 18.00
1065 84067528 713 333.08 105334 17.57
1066 84168808 719 344.94 105436 18.00
1067 84216698 455 117.03 105502 18.00
1068 84332735 176 30.09 105652 18.00
1069 84340764 345 64.98 105678 18.00
1070 84350831 295 51.75 105709 18.00
1071 84410639 414 93.93 105781 19.61
1072 84520840 787 674.49 105889 18.00
1073 84698316 705 364.03 106116 17.78
1074 84752150 659 253.36 106196 18.21
1075 84866412 319 57.64 106346 17.78
1076 84872463 561 174.17 106370 18.21
1077 85012882 455 117.03 106526 17.35
1078 85031342 352 66.89 106567 17.57
1079 85046144 118 23.42 106603 18.75
1080 85201513 526 158.17 106801 18.00
1081 85336869 380 78.12 106962 18.00
1082 85369865 435 104.92 107013 18.32
1083 85389959 688 328.69 107056 19.61
1084 85497875 718 366.73 107196 18.00
1085 85576246 768 471.89 107294 18.00
1086 85639801 359 69.86 107366 18.00
1087 85695437 414 93.93 107446 17.35
1088 85770935 508 144.95 107549 17.57
1089 85839908 591 188.65 107646 18.00
1090 85871741 124 23.92 107698 19.39
1091 86012033 604 210.97 107840 19.61
1092 86012706 719 344.94 107862 18.00
1093 86051142 711 380.66 107923 19.61
1094 86081792 558 172.78 107974 18.96
1095 86251647 556 174.47 108155 17.35
1096 86422991 76 19.69 108336 18.00
1097 86483436 195 33.17 108425 19.61
1098 86519139 734 439.08 108478 18.32
1099 86547995 428 101.58 108541 18.00
1100 86586670 724 415.31 108600 18.00
1101 86595711 62 17.75 108635 17.78
1102 86624154 398 85.63 108687 18.00
1103 86678486 511 149.39 108755 18.11
1104 86881886 713 333.08 108981 17.35
1105 87024307 108 22.63 109151 18.00
1106 87032155 228 39.00 109179 18.00
1107 87155317 697 299.81 109304 18.00
1108 87293394 768 471.89 109453 18.96
1109 87391537 694 347.15 109561 18.00
1110 87397301 769 568.41 109586 18.96
1111 87426469 775 556.41 109636 19.61
1112 87438431 113 23.02 109669 17.57
1113 87449727 617 223.47 109705 19.61
1114 87544816 704 326.52 109799 18.00
1115 87561390 177 30.25 109841 18.11
1116 87700148 705 364.03 109995 17.35
1117 87701846 255 43.96 110016 18.00
1118 87733565 497 142.37 110071 18.96
1119 87753341 622 244.71 110107 19.61
1120 87774864 172 29.49 110162 17.35
1121 88016948 691 332.16 110433 19.61
1122 88025610 89 21.05 110463 18.11
1123 88110469 696 307.73 110570 18.00
1124 88164853 679 318.29 110634 18.00
1125 88268510 856 997.78 110750 18.32
1126 88645549 344 64.67 111151 18.00
1127 88677175 760 464.80 111205 18.00
1128 89047430 216 36.85 111609 18.00
1129 89067280 316 56.81 111651 18.11
1130 89516859 696 307.73 112080 18.32
1131 89572656 639 249.88 112159 18.96
1132 89622612 359 69.86 112229 19.61
1133 89657863 428 101.58 112283 17.35
1134 89658265 719 344.94 112303 17.35
1135 89692378 359 69.86 112366 19.61
1136 89711477 688 328.69 112406 19.61
1137 89796270 696 307.73 112502 18.00
1138 89925474 268 46.26 112664 18.00
1139 90013792 816 636.95 112767 17.35
1140 90094574 355 68.30 112868 19.61
1141 90159230 560 175.34 112964 18.00
1142 90202997 295 51.75 113022 18.00
1143 90289592 689 300.98 113135 18.00
1144 90294021 579 187.32 113157 18.75
1145 90394291 639 249.88 113289 17.35
1146 90638659 775 556.41 113560 17.35
1147 90666350 176 30.09 113615 18.00
1148 90727263 752 487.99 113693 18.00
1149 90871702 448 112.41 113877 18.00
1150 90885124 302 53.30 113914 18.00
1151 90895977 519 154.30 113940 18.00
1152 90977603 96 21.67 114040 17.78
1153 90987584 476 129.76 114068 18.00
1154 91046722 671 277.06 114146 18.00
1155 91080421 326 59.13 114196 19.61
1156 91169803 71 19.06 114288 17.68
1157 91181306 755 529.80 114318 18.96
1158 91464838 600 203.87 114603 18.00
1159 91489088 436 106.16 114643 18.00
1160 91531599 135 24.92 114710 18.00
1161 91572134 600 203.87 114774 17.35
1162 91639537 387 81.05 114867 17.35
1163 91686037 705 364.03 114926 18.00
1164 91742179 655 252.34 115008 19.61
1165 91750609 568 189.84 115032 18.00
1166 91948255 319 57.64 115256 18.96
1167 91969917 711 380.66 115294 17.35
1168 92020304 753 514.96 115375 17.35
1169 92043807 489 138.11 115421 17.35
1170 92057859 408 90.57 115453 18.00
1171 92251130 492 134.92 115675 18.11
1172 92287481 560 175.34 115722 18.00
1173 92441381 408 90.57 115911 18.00
1174 92519877 775 556.41 115999 17.89
1175 92523092 271 46.93 116021 19.18
1176 92552294 112 22.94 116067 18.00
1177 92850210 240 41.21 116403 18.00
1178 92883998 419 97.20 116452 18.00
1179 92964521 467 121.56 116558 17.35
1180 92964576 312 55.68 116579 18.00
1181 93128591 492 134.92 116754 18.00
1182 93132931 435 104.92 116778 17.35
1183 93302383 415 95.00 116956 18.96
1184 93319586 255 43.96 116991 18.00
1185 93485005 174 29.79 117162 18.00
1186 93493149 391 82.35 117188 17.35
1187 93529397 63 17.91 117245 17.57
1188 93783515 339 62.98 117524 18.00
1189 94028061 620 217.12 117780 18.96
1190 94145561 710 362.55 117914 18.11
1191 94169799 377 76.28 117959 18.00
1192 94421296 684 283.21 118244 17.35
1193 94431442 713 333.08 118279 18.00
1194 94602789 467 121.56 118481 18.00
1195 94606699 51 15.86 118504 18.21
1196 94688063 63 17.91 118582 17.89
1197 94830256 679 318.29 118744 18.00
1198 95024014 335 61.77 118970 17.35
1199 95097751 591 188.65 119060 18.00
1200 95205254 675 317.99 119176 18.00
1201 95404426 71 19.06 119399 18.00
1202 95507561 664 270.86 119527 17.35
1203 95845376 696 307.73 119882 19.61
1204 95883566 56 16.76 119929 18.00
1205 95920272 428 101.58 119996 16.71
1206 95920582 700 294.28 120017 18.00
1207 95935834 697 299.81 120058 18.32
1208 95980549 679 318.29 120121 18.00
1209 96000623 670 272.62 120158 18.00
1210 96029258 78 19.92 120211 18.96
1211 96130599 633 241.23 120344 17.35
1212 96140143 327 59.28 120371 17.35
1213 96251526 124 23.92 120520 17.35
1214 96361512 655 252.34 120648 17.35
1215 96520432 704 326.52 120807 18.00
1216 96567187 668 291.28 120876 18.00
1217 96674481 444 109.09 121003 18.00
1218 96740901 271 46.93 121095 17.35
1219 97012328 487 132.65 121358 18.00
1220 97138214 195 33.17 121497 18.00
1221 97174870 529 156.43 121554 18.00
1222 97199836 473 126.29 121601 17.35
1223 97278705 492 134.92 121700 18.00
1224 97284732 668 291.28 121726 18.00
1225 97294464 624 242.54 121757 18.00
1226 97334109 799 620.61 121808 18.00
1227 97434314 99 21.91 121923 16.71
1228 97647331 113 23.02 122129 18.96
1229 97685805 632 232.56 122186 18.00
1230 97811660 387 81.05 122329 18.00
1231 97930509 352 66.89 122473 17.35
1232 98147716 804 572.94 122701 17.35
1233 98214639 199 33.86 122776 18.11
1234 98270564 448 112.41 122846 16.71
1235 98283824 646 271.78 122879 18.00
1236 98346913 344 64.67 122948 16.71
1237 98508575 499 141.24 123098 18.00
1238 98534172 519 154.30 123144 18.00
1239 98538562 476 129.76 123175 18.00
1240 98583461 414 93.93 123238 18.11
1241 98732929 711 380.66 123413 18.00
1242 98847637 275 47.73 123570 18.00
1243 98878419 664 270.86 123631 18.00
1244 98899050 444 109.09 123670 17.35
1245 99435064 408 90.57 124236 18.00
1246 99492812 190 32.33 124305 17.35
1247 99669767 531 160.62 124501 18.00
1248 99725499 403 88.99 124579 18.21
1249 99744709 224 38.29 124621 18.00
1250 99868419 604 210.97 124771 18.00
1251 99978210 143 25.74 124886 18.00
1252 100063491 704 326.52 125008 18.21
1253 100097514 79 20.03 125071 17.35
1254 100205070 664 270.86 125198 18.00
1255 100225545 700 294.28 125240 18.00
1256 100277855 415 95.00 125313 18.00
1257 100384360 638 261.42 125437 18.32
1258 100465286 316 56.81 125538 18.00
1259 100536550 519 154.30 125634 18.00
1260 100556881 159 27.66 125670 17.35
1261 100669419 284 49.41 125820 17.35
1262 100749772 230 39.39 125929 16.71
1263 100811843 248 42.69 126008 18.00
1264 100912275 665 286.02 126106 17.89
1265 101069465 572 183.73 126266 16.71
1266 101141891 254 43.77 126359 17.46
1267 101269771 606 221.61 126491 18.00
1268 101278220 670 272.62 126523 18.00
1269 101469355 176 30.09 126739 17.35
1270 101481666 504 143.61 126773 17.35
1271 101595678 67 18.51 126888 17.35
1272 101657522 316 56.81 126988 18.00
1273 101683479 707 320.63 127027 17.35
1274 101799205 316 56.81 127176 16.71
1275 101955133 707 320.63 127346 18.00
1276 101998188 691 332.16 127405 18.11
1277 102014507 728 431.28 127442 18.00
1278 102165572 649 269.34 127605 18.00
1279 102167129 920 1325.16 127628 18.00
1280 102193610 716 337.96 127665 18.00
1281 102217625 497 142.37 127711 18.00
1282 102262169 496 144.49 127776 18.00
1283 102271654 467 121.56 127805 17.35
1284 102368243 71 19.06 127929 18.00
1285 102374729 92 21.32 127953 18.00
1286 102539324 625 226.08 128103 16.71
1287 102583978 304 53.73 128163 16.92
1288 102590417 736 412.77 128189 18.00
1289 102615983 710 362.55 128233 16.71
1290 102657564 444 109.09 128297 17.35
1291 102740539 52 16.04 128391 16.71
1292 102792436 508 144.95 128460 16.92
1293 103028032 344 64.67 128728 18.00
1294 103088967 495 140.69 128815 18.00
1295 103186774 487 132.65 128948 18.00
1296 103198292 696 307.73 128976 18.00
1297 103248134 608 202.86 129046 16.71
1298 103301647 451 113.08 129120 18.00
1299 103318127 575 187.30 129160 18.00
1300 103342054 692 305.66 129199 17.35
1301 103608380 632 232.56 129483 16.71
1302 103667207 463 119.23 129546 18.00
1303 103699715 504 143.61 129609 18.00
1304 103703223 291 50.97 129631 17.35
1305 103759975 675 317.99 129708 16.71
1306 103817056 704 326.52 129786 16.71
1307 103851808 487 132.65 129842 18.00
1308 103980003 670 272.62 129993 16.71
1309 104102136 688 328.69 130127 16.71
1310 104102555 704 326.52 130147 18.00
1311 104110205 620 217.12 130176 17.35
1312 104240179 718 366.73 130313 17.35
1313 104348820 625 226.08 130445 18.00
1314 104458014 688 328.69 130579 16.71
1315 104473789 99 21.91 130619 18.00
1316 104506609 391 82.35 130675 16.71
1317 104525926 809 690.56 130714 16.71
1318 104748846 323 58.48 130951 16.71
1319 104812316 86 20.77 131014 16.92
1320 104907809 76 19.69 131117 17.35
1321 104931998 696 307.73 131161 18.00
1322 105184306 487 132.65 131447 17.14
1323 105184463 684 283.21 131467 18.00
1324 105268764 563 181.65 131578 18.00
1325 105334390 252 43.42 131670 17.89
1326 105430045 500 144.02 131778 16.71
1327 105579699 583 201.26 131945 18.00
1328 105622368 719 344.94 132002 18.00
1329 105878594 88 20.96 132307 17.35
1330 106012960 608 202.86 132480 16.71
1331 106273042 742 406.60 132796 18.00
1332 106537754 563 181.65 133073 18.00
1333 106634198 339 62.98 133193 17.35
1334 106667644 103 22.23 133242 17.35
1335 106690127 216 36.85 133285 18.00
1336 106701349 316 56.81 133317 17.14
1337 106812863 440 109.25 133464 18.00
1338 106813345 49 15.48 133490 16.71
1339 106910861 664 270.86 133622 16.71
1340 106942453 417 95.20 133670 16.71
1341 107061382 71 19.06 133819 18.00
1342 107068248 430 101.41 133845 16.71
1343 107219473 199 33.86 134020 16.92
1344 107251268 366 72.41 134078 18.00
1345 107257266 335 61.77 134109 16.71
1346 107322775 448 112.41 134193 18.00
1347 107445510 711 380.66 134334 18.00
1348 107458186 440 109.25 134374 16.71
1349 107617687 71 19.06 134552 18.00
1350 107648668 591 188.65 134603 17.35
1351 107670229 280 48.67 134650 17.14
1352 107679801 732 451.17 134679 18.00
1353 107727345 734 439.08 134739 18.00
1354 107746384 409 91.12 134779 18.00
1355 107851551 401 87.91 134906 17.35
1356 107873176 696 307.73 134945 17.35
1357 107919667 319 57.64 135004 16.71
1358 108098639 455 117.03 135184 16.71
1359 108177532 691 332.16 135295 16.71
1360 108195278 734 439.08 135340 16.71
1361 108334355 327 59.28 135497 16.71
1362 108573548 271 46.93 135778 16.71
1363 108613835 377 76.28 135846 17.35
1364 108627849 529 156.43 135887 16.71
1365 108632345 455 117.03 135912 16.71
1366 108706240 627 249.17 136006 18.00
1367 108884717 268 46.26 136209 16.71
1368 108920603 739 495.61 136260 16.71
1369 108956456 152 26.78 136314 16.71
1370 108982328 716 337.96 136365 16.71
1371 109006017 748 436.69 136412 17.35
1372 109369283 472 125.87 136786 18.00
1373 109384559 745 421.25 136818 17.35
1374 109395304 551 164.56 136851 16.71
1375 109455257 543 164.77 136929 18.00
1376 109590982 771 600.02 137093 16.71
1377 109636234 569 185.56 137158 18.00
1378 109677010 263 45.37 137219 18.00
1379 109677771 671 277.06 137241 17.35
1380 109713335 230 39.39 137302 16.71
1381 109757706 192 32.67 137369 18.00
1382 109779320 713 333.08 137409 17.35
1383 109881324 688 328.69 137540 17.68
1384 110243653 103 22.23 137904 16.71
1385 110445764 358 69.10 138128 18.00
1386 110484492 444 109.09 138186 18.00
1387 110528129 51 15.86 138246 16.71
1388 110728344 83 20.46 138486 16.92
1389 110802726 451 113.08 138582 18.00
1390 110899119 615 227.36 138704 17.35
1391 111048852 723 388.29 138898 16.71
1392 111150369 192 32.67 139019 18.00
1393 111188562 364 71.71 139087 18.00
1394 111385227 540 166.11 139304 16.71
1395 111435942 639 249.88 139365 18.00
1396 111462547 684 283.21 139412 17.35
1397 111526716 679 318.29 139503 18.00
1398 111695111 569 185.56 139714 17.35
1399 111813278 705 364.03 139865 17.35
1400 111941768 652 262.10 140015 16.71
1401 111970456 704 326.52 140068 16.71
1402 112372532 236 40.44 140511 17.57
1403 112511434 519 154.30 140673 16.71
1404 112512028 654 259.18 140695 17.78
1405 112539046 553 176.67 140743 16.71
1406 112547384 271 46.93 140773 16.71
1407 112578541 718 366.73 140828 18.00
1408 112605739 696 307.73 140877 17.78
1409 112626992 112 22.94 140921 18.00
1410 112658059 463 119.23 140975 17.35
1411 112719679 543 164.77 141061 16.71
1412 112778440 676 282.10 141156 17.89
1413 113020979 401 87.91 141428 18.00
1414 113132966 302 53.30 141553 18.00
1415 113224125 688 328.69 141680 17.35
1416 113256027 131 24.54 141730 17.35
1417 113435444 705 364.03 141927 16.71
1418 113458039 353 67.64 141971 18.00
1419 113513823 575 187.30 142058 16.71
1420 113581099 462 120.87 142167 16.71
1421 113907920 723 388.29 142529 17.68
1422 113945549 736 412.77 142587 16.71
1423 114145590 692 305.66 142815 18.00
1424 114159326 678 274.92 142847 18.00
1425 114203093 56 16.76 142905 17.35
1426 114209850 689 300.98 142940 18.00
1427 114389706 705 364.03 143144 17.35
1428 114408741 361 70.62 143183 16.71
1429 114482275 526 158.17 143270 18.00
1430 114585446 688 328.69 143390 16.71
1431 114587324 492 134.92 143415 18.00
1432 114642283 736 412.77 143492 16.71
1433 114738017 448 112.41 143607 16.71
1434 114741005 481 129.57 143636 18.00
1435 114812370 697 299.81 143736 16.71
1436 114881265 467 121.56 143831 16.71
1437 114943280 201 34.22 143918 16.71
1438 114973730 158 27.53 143973 16.71
1439 115092843 732 451.17 144125 16.71
1440 115129461 723 388.29 144172 18.00
1441 115188522 156 27.28 144245 16.92
1442 115196253 572 183.73 144273 18.00
1443 115343184 54 16.41 144432 16.71
1444 115348441 65 18.22 144456 16.71
1445 115471722 697 299.81 144581 16.71
1446 115563869 583 201.26 144694 16.71
1447 115711070 492 134.92 144860 17.35
1448 115712390 574 181.47 144881 16.71
1449 115758161 704 326.52 144941 17.35
1450 115852078 718 366.73 145049 17.35
1451 115865819 380 78.12 145087 16.71
1452 116082626 412 92.93 145346 16.71
1453 116147990 671 277.06 145420 17.14
1454 116319976 534 162.50 145607 18.00
1455 116320675 361 70.62 145634 18.00
1456 116452449 62 17.75 145793 16.71
1457 116460808 463 119.23 145824 16.71
1458 116538635 688 328.69 145937 17.35
1459 116558137 403 88.99 145982 16.71
1460 116646204 575 187.30 146084 16.71
1461 116691267 527 155.96 146160 16.71
1462 116846864 440 109.25 146344 16.71
1463 116874784 575 187.30 146396 18.00
1464 116889584 158 27.53 146426 18.00
1465 116961407 65 18.22 146521 17.14
1466 117184954 294 51.51 146777 16.71
1467 117365800 494 141.37 146980 18.00
1468 117379646 696 307.73 147019 16.71
1469 117420209 591 188.65 147089 17.35
1470 117478882 540 166.11 147164 16.71
1471 117513299 199 33.86 147219 18.00
1472 117543899 678 274.92 147277 18.00
1473 117726293 620 217.12 147467 16.71
1474 117748865 812 680.88 147512 18.00
1475 117810207 568 189.84 147589 18.00
1476 117852441 604 210.97 147658 16.71
1477 118051358 511 149.39 147877 16.71
1478 118190008 391 82.35 148018 18.00
1479 118225014 678 274.92 148083 16.71
1480 118483905 275 47.73 148350 17.35
1481 118487131 728 431.28 148377 18.00
1482 118669008 190 32.33 148576 17.78
1483 118728017 441 109.77 148656 16.71
1484 118843124 524 150.73 148790 18.00
1485 118880622 729 380.02 148849 18.00
1486 119122344 627 249.17 149113 16.71
1487 119132805 679 318.29 149144 17.35
1488 119402824 670 272.62 149452 18.00
1489 119506104 291 50.97 149598 16.71
1490 119564890 540 166.11 149677 17.35
1491 119803812 711 380.66 149955 16.71
1492 119861375 414 93.93 150044 16.71
1493 119919949 568 189.84 150118 16.71
1494 119993990 455 117.03 150222 18.00
1495 120142148 550 172.20 150383 18.00
1496 120172002 451 113.08 150429 18.00
1497 120214965 691 332.16 150494 17.35
1498 120297978 728 431.28 150603 18.00
1499 120340254 67 18.51 150662 17.35
1500 120492664 398 85.63 150864 18.00
1501 120494426 224 38.29 150888 16.71
1502 120499035 467 121.56 150913 16.71
1503 120571491 713 333.08 151022 18.00
1504 120580261 678 274.92 151048 17.35
1505 120634964 739 495.61 151130 17.35
1506 120680024 323 58.48 151207 18.00
1507 120749582 716 337.96 151303 16.71
1508 120960147 57 16.93 151531 17.14
1509 121108590 368 72.93 151701 17.35
1510 121130016 617 223.47 151742 16.71
1511 121285028 307 54.48 151909 17.78
1512 121329913 769 568.41 151973 17.14
1513 121372074 736 412.77 152033 16.71
1514 121450738 268 46.26 152127 16.71
1515 121470510 628 245.27 152164 16.71
1516 121488216 721 433.48 152202 16.71
1517 121514580 639 249.88 152255 16.92
1518 121618622 671 277.06 152361 17.35
1519 121626633 515 147.53 152391 18.00
1520 121706393 195 33.17 152477 16.71
1521 121712469 254 43.77 152505 17.35
1522 121736744 252 43.42 152546 17.78
1523 121914746 307 54.48 152730 16.71
1524 121938003 448 112.41 152779 16.71
1525 122079613 217 37.04 152948 18.00
1526 122170975 768 471.89 153055 16.71
1527 122264414 652 262.10 153174 16.92
1528 122265971 601 200.55 153196 18.00
1529 122279040 236 40.44 153231 18.00
1530 122351361 675 317.99 153333 18.00
1531 122384335 217 37.04 153387 17.35
1532 122550408 668 291.28 153597 18.00
1533 122691138 51 15.86 153746 16.71
1534 122729259 707 320.63 153804 18.00
1535 122854153 636 231.85 153935 17.35
1536 122886114 451 113.08 153988 17.35
1537 122957801 56 16.76 154079 18.00
1538 123000530 376 76.43 154139 17.35
1539 123203361 668 291.28 154385 16.92
1540 123256251 102 22.15 154473 17.35
1541 123443924 193 32.84 154688 16.71
1542 123858251 688 328.69 155106 16.71
1543 123884155 615 227.36 155155 16.71
1544 124003035 487 132.65 155289 16.71
1545 124011384 632 232.56 155327 16.71
1546 124109890 113 23.02 155434 16.71
1547 124185442 688 328.69 155540 18.00
1548 124197865 444 109.09 155576 16.71
1549 124316301 207 35.26 155710 16.71
1550 124385311 655 252.34 155801 16.71
1551 124427310 108 22.63 155876 17.35
1552 124500803 478 129.43 155963 16.71
1553 124574413 240 41.21 156057 17.35
1554 124633586 723 388.29 156137 16.71
1555 124956211 696 307.73 156468 16.71
1556 125006461 662 282.19 156548 18.00
1557 125016728 691 332.16 156580 17.35
1558 125116123 271 46.93 156707 18.00
1559 125186024 679 318.29 156802 16.71
1560 125271171 711 380.66 156908 16.71
1561 125310667 775 556.41 156965 17.68
1562 125371972 745 421.25 157046 16.71
1563 125587137 633 241.23 157263 16.71
1564 125602941 783 633.54 157293 17.35
1565 125651866 294 51.51 157362 16.71
1566 125720483 433 104.37 157438 18.00
1567 125873361 231 39.55 157633 16.71
1568 125880963 448 112.41 157664 16.92
1569 126021511 515 147.53 157813 16.71
1570 126157650 671 277.06 157957 16.71
1571 126385992 771 600.02 158219 16.71
1572 126467004 327 59.28 158313 17.35
1573 126631844 364 71.71 158488 18.00
1574 126673412 558 172.78 158549 18.00
1575 126768094 326 59.13 158662 16.71
1576 127076916 248 42.69 158981 16.71
1577 127321050 83 20.46 159254 16.71
1578 127430909 737 467.99 159373 16.71
1579 127435532 644 255.45 159399 17.35
1580 127537032 696 307.73 159540 17.35
1581 127555207 652 262.10 159584 17.35
1582 127561500 787 674.49 159615 16.71
1583 127573738 455 117.03 159642 16.71
1584 127629574 604 210.97 159726 16.71
1585 127727169 716 337.96 159841 17.35
1586 127802179 671 277.06 159933 16.71
1587 128035978 143 25.74 160216 17.57
1588 128337761 487 132.65 160568 16.71
1589 128345828 355 68.30 160602 16.71
1590 128399600 511 149.39 160670 16.71
1591 128417436 704 326.52 160715 18.00
1592 128569949 207 35.26 160890 16.71
1593 128774339 636 231.85 161100 17.35
1594 128777796 689 300.98 161122 16.71
1595 128792904 113 23.02 161165 17.35
1596 128799393 704 326.52 161191 16.71
1597 128835844 516 149.64 161244 16.71
1598 128875215 760 464.80 161321 17.35
1599 128956084 391 82.35 161428 18.00
1600 128977619 492 134.92 161470 16.71
1601 129025034 327 59.28 161536 16.71
1602 129084783 184 31.36 161623 17.35
1603 129175913 422 97.97 161731 16.71
1604 129185945 696 307.73 161763 18.00
1605 129190774 231 39.55 161788 17.14
1606 129244253 632 232.56 161861 16.71
1607 129274948 99 21.91 161915 18.00
1608 129321962 723 388.29 161986 16.71
1609 129530041 252 43.42 162202 16.71
1610 129632354 332 61.17 162320 16.71
1611 129670561 112 22.94 162372 17.89
1612 129706610 945 1523.70 162420 16.71
1613 129722961 304 53.73 162451 16.71
1614 129754610 657 260.46 162500 16.71
1615 129951710 217 37.04 162719 17.35
1616 129987597 560 175.34 162778 18.00
1617 129999249 384 80.08 162809 17.35
1618 130045070 752 487.99 162873 16.71
1619 130082034 572 183.73 162932 16.71
1620 130152274 639 249.88 163021 18.00
1621 130175471 259 44.69 163063 16.71
1622 130191955 73 19.32 163107 18.00
1623 130239164 56 16.76 163192 16.71
1624 130253354 639 249.88 163225 18.00
1625 130271409 355 68.30 163264 18.00
1626 130386184 691 332.16 163398 16.71
1627 130494917 337 62.30 163517 17.35
1628 130543542 457 118.95 163584 16.71
1629 130545739 771 600.02 163605 16.71
1630 130589218 681 309.95 163676 17.35
1631 130661520 743 466.23 163770 16.71
1632 130678080 152 26.78 163812 17.35
1633 130796743 748 436.69 163946 17.35
1634 130839904 743 466.23 164017 18.00
1635 130949832 728 431.28 164152 16.71
1636 131106721 179 30.55 164333 17.35
1637 131179558 319 57.64 164428 16.71
1638 131263686 671 277.06 164545 17.35
1639 131317943 220 37.58 164617 16.71
1640 131367568 768 471.89 164688 16.71
1641 131416698 472 125.87 164753 16.71
1642 131460308 664 270.86 164817 18.00
1643 131557441 728 431.28 164925 16.71
1644 131637699 704 326.52 165021 18.00
1645 131728732 280 48.67 165136 17.35
1646 131746671 655 252.34 165181 16.71
1647 131832765 57 16.93 165273 17.35
1648 131934175 156 27.28 165416 16.71
1649 131973179 195 33.17 165474 16.71
1650 132024485 799 620.61 165554 16.71
1651 132051870 620 217.12 165617 16.71
1652 132146603 408 90.57 165746 16.71
1653 132276058 719 344.94 165899 16.71
1654 132302048 526 158.17 165951 17.35
1655 132336342 135 24.92 166008 17.35
1656 132396861 668 291.28 166089 16.71
1657 132422049 49 15.48 166138 16.71
1658 132506460 737 467.99 166251 16.71
1659 132684147 52 16.04 166450 16.71
1660 132760234 159 27.66 166538 16.71
1661 132776215 270 46.71 166574 17.35
1662 132880977 489 138.11 166711 16.92
1663 132900413 252 43.42 166748 17.35
1664 132904918 216 36.85 166770 16.71
1665 132964602 551 164.56 166850 16.71
1666 132994764 655 252.34 166900 16.71
1667 133002649 396 85.28 166933 18.00
1668 133184013 96 21.67 167146 16.71
1669 133233344 664 270.86 167211 17.35
1670 133273398 568 189.84 167266 18.00
1671 133274768 88 20.96 167289 16.71
1672 133374520 700 294.28 167432 17.35
1673 133448342 736 412.77 167531 16.71
1674 133492466 440 109.25 167603 16.71
1675 133527414 716 337.96 167654 16.71
1676 133701889 255 43.96 167857 17.46
1677 134085638 684 283.21 168275 16.71
1678 134175935 96 21.67 168368 17.35
1679 134177031 719 344.94 168388 18.00
1680 134220924 671 277.06 168447 16.71
1681 134324367 591 188.65 168582 17.35
1682 134464230 728 431.28 168734 18.00
1683 134493110 419 97.20 168785 17.35
1684 134661532 799 620.61 168978 16.71
1685 134673998 723 388.29 169010 18.00
1686 134701171 624 242.54 169058 17.35
1687 134725393 472 125.87 169109 16.71
1688 134725586 679 318.29 169135 18.00
1689 134864256 76 19.69 169297 16.71
1690 135101877 88 20.96 169562 16.71
1691 135113292 455 117.03 169590 18.00
1692 135172400 575 187.30 169660 17.57
1693 135207256 734 439.08 169711 18.00
1694 135345890 545 167.38 169867 16.71
1695 135359990 81 20.25 169900 17.35
1696 135500174 96 21.67 170052 17.35
1697 135580485 207 35.26 170163 17.35
1698 135814371 689 300.98 170404 17.35
1699 135951547 681 309.95 170584 16.71
1700 136096640 145 25.96 170731 16.71
1701 136129483 542 168.67 170792 16.71
1702 136282918 737 467.99 170995 16.71
1703 136311906 728 431.28 171036 16.71
1704 136449434 688 328.69 171191 16.71
1705 136533258 472 125.87 171295 16.71
1706 136598520 696 307.73 171391 16.71
1707 136686773 60 17.43 171499 16.71
1708 136810692 769 568.41 171658 16.71
1709 136875161 376 76.43 171753 16.71
1710 136877503 423 97.36 171774 16.71
1711 136914750 304 53.73 171837 16.71
1712 137148634 697 299.81 172117 16.71
1713 137184053 624 242.54 172174 16.71
1714 137216953 883 971.80 172233 16.71
1715 137248591 448 112.41 172282 16.71
1716 137485332 671 277.06 172531 16.71
1717 137511279 56 16.76 172582 16.71
1718 137530298 408 90.57 172625 16.71
1719 137613093 704 326.52 172730 16.92
1720 137709125 568 189.84 172843 16.71
1721 137846705 496 144.49 173015 16.71
1722 137972278 96 21.67 173157 18.00
1723 137978957 704 326.52 173182 16.71
1724 138073139 566 172.63 173303 16.71
1725 138099461 787 674.49 173347 16.71
1726 138314424 774 587.37 173593 16.71
1727 138334324 696 307.73 173631 16.71
1728 138413970 718 366.73 173734 17.35
1729 138432438 207 35.26 173772 16.71
1730 138473794 668 291.28 173842 18.00
1731 138483924 707 320.63 173869 16.71
1732 138506201 62 17.75 173917 17.35
1733 138583455 295 51.75 174025 16.71
1734 138687069 67 18.51 174167 16.71
1735 138710369 339 62.98 174205 16.71
1736 138877135 504 143.61 174408 16.71
1737 139015494 423 97.36 174573 17.35
1738 139028262 480 130.21 174605 16.71
1739 139167459 455 117.03 174767 16.71
1740 139186998 785 647.86 174823 16.71
1741 139226725 536 160.18 174902 17.35
1742 139236014 696 307.73 174932 16.71
1743 139270636 583 201.26 174979 16.71
1744 139283718 707 320.63 175010 16.71
1745 139289064 259 44.69 175036 16.71
1746 139355619 531 160.62 175121 17.35
1747 139431225 467 121.56 175228 16.71
1748 139595197 504 143.61 175419 16.71
1749 139595499 312 55.68 175440 16.71
1750 139606511 691 332.16 175470 17.35
1751 139749488 214 36.49 175647 16.71
1752 139772431 512 144.44 175698 16.71
1753 139775512 62 17.75 175722 17.35
1754 139825617 647 246.69 175789 18.00
1755 139842557 380 78.12 175827 18.00
1756 139863082 638 261.42 175875 16.71
1757 140092559 736 412.77 176114 16.71
1758 140114280 96 21.67 176156 16.71
1759 140288817 369 73.42 176333 16.71
1760 140313659 627 249.17 176381 17.35
1761 140431593 174 29.79 176515 16.71
1762 140451141 377 76.28 176559 16.71
1763 140499049 463 119.23 176630 16.71
1764 140505696 76 19.69 176659 16.71
1765 140650571 563 181.65 176830 16.71
1766 140737371 225 38.48 176947 18.00
1767 140742519 342 64.07 176976 16.71
1768 140776754 419 97.20 177028 16.71
1769 140873719 689 300.98 177154 16.71
1770 141073071 704 326.52 177393 16.71
1771 141145208 806 675.82 177504 16.71
1772 141307117 435 104.92 177671 17.35
1773 141606596 696 307.73 177986 16.71
1774 141698804 688 328.69 178092 17.35
1775 141808712 364 71.71 178224 16.92
1776 141823596 679 318.29 178261 16.71
1777 141854668 627 249.17 178317 17.35
1778 141909993 710 362.55 178400 17.14
1779 141918344 671 277.06 178431 17.35
1780 142089712 679 318.29 178618 16.71
1781 142106139 728 431.28 178652 16.71
1782 142251284 775 556.41 178819 16.71
1783 142278969 688 328.69 178873 16.71
1784 142320821 92 21.32 178935 16.71
1785 142379872 718 366.73 179027 16.71
1786 142391604 689 300.98 179058 17.68
1787 142422559 71 19.06 179108 16.71
1788 142517200 391 82.35 179216 16.71
1789 142548838 463 119.23 179271 17.57
1790 142686127 193 32.84 179429 17.35
1791 142748964 704 326.52 179527 16.71
1792 142816292 67 18.51 179605 16.71
1793 142853699 262 45.24 179667 18.00
1794 142992732 425 99.48 179824 17.14
1795 143028565 665 286.02 179869 18.00
1796 143047296 518 151.06 179908 16.71
1797 143153149 710 362.55 180050 17.35
1798 143157085 423 97.36 180075 18.00
1799 143376882 231 39.55 180334 16.71
1800 143486704 472 125.87 180463 16.71
1801 143560301 48 15.29 180561 17.35
1802 143571089 385 80.11 180591 16.71
1803 143866143 441 109.77 180921 16.71
1804 143943192 668 291.28 181018 16.71
1805 144057490 465 122.12 181160 16.71
1806 144099124 67 18.51 181232 16.71
1807 144136269 483 132.60 181292 16.71
1808 144198879 110 22.78 181376 16.71
1809 144235860 71 19.06 181429 16.71
1810 144249098 339 62.98 181463 16.71
1811 144423198 113 23.02 181671 16.71
1812 144494489 632 232.56 181764 16.71
1813 144496232 739 495.61 181785 17.35
1814 144556405 700 294.28 181860 16.71
1815 144597729 318 57.28 181935 17.57
1816 144749608 455 117.03 182114 16.71
1817 145036975 719 344.94 182425 17.35
1818 145100330 380 78.12 182520 16.71
1819 145131566 216 36.85 182588 16.71
1820 145178638 167 28.76 182671 16.71
1821 145311629 716 337.96 182839 16.71
1822 145355563 176 30.09 182925 16.71
1823 145416983 556 174.47 183007 16.71
1824 145417354 679 318.29 183029 16.71
1825 145446544 657 260.46 183074 16.71
1826 145630431 691 332.16 183286 16.71
1827 145651209 691 332.16 183337 17.35
1828 145773095 519 154.30 183477 18.00
1829 145787404 88 20.96 183510 16.71
1830 146013373 408 90.57 183750 16.71
1831 146040515 688 328.69 183797 16.71
1832 146180133 243 41.74 183936 16.71
1833 146295194 668 291.28 184068 16.71
1834 146388497 430 101.41 184177 16.71
1835 146413922 198 33.69 184223 17.35
1836 146499386 364 71.71 184323 16.71
1837 146677871 689 300.98 184518 16.71
1838 146864311 691 332.16 184733 16.71
1839 146936178 448 112.41 184825 16.71
1840 146962121 391 82.35 184878 16.71
1841 147001229 704 326.52 184932 16.71
1842 147008755 678 274.92 184958 16.71
1843 147136871 222 37.96 185098 16.71
1844 147177542 768 471.89 185169 16.71
1845 147368636 145 25.96 185419 16.71
1846 147378024 236 40.44 185450 18.00
1847 147412781 329 59.91 185507 16.71
1848 147541183 344 64.67 185649 17.78
1849 147542948 435 104.92 185671 16.71
1850 147588189 335 61.77 185745 16.71
1851 147616540 441 109.77 185790 18.00
1852 147623591 524 150.73 185821 17.35
1853 147635850 574 181.47 185856 16.71
1854 147637456 711 380.66 185878 16.71
1855 147751475 719 344.94 186022 16.71
1856 147857346 496 144.49 186151 16.71
1857 147888524 679 318.29 186209 16.71
1858 148064947 739 495.61 186397 16.71
1859 148232396 624 242.54 186578 16.71
1860 148263003 408 90.57 186633 16.71
1861 148410577 600 203.87 186819 16.71
1862 148479040 278 48.30 186919 18.00
1863 148489401 304 53.73 186955 16.71
1864 148611683 622 244.71 187083 16.71
1865 148681408 487 132.65 187181 16.71
1866 148805829 719 344.94 187324 16.71
1867 148843199 62 17.75 187389 16.71
1868 148844215 263 45.37 187413 16.71
1869 148894410 399 87.30 187487 17.35
1870 148909448 476 129.76 187519 16.71
1871 148957750 81 20.25 187600 16.71
1872 149144561 839 828.69 187823 16.71
1873 149275006 460 119.54 187961 16.71
1874 149314360 620 217.12 188015 17.89
1875 149454431 271 46.93 188182 16.71
1876 149603485 192 32.67 188352 16.71
1877 149662273 455 117.03 188440 16.71
1878 149757022 270 46.71 188559 16.71
1879 149814922 652 262.10 188652 16.71
1880 149889256 368 72.93 188766 16.71
1881 150038671 679 318.29 188956 17.35
1882 150248442 448 112.41 189196 16.71
1883 150290069 96 21.67 189274 17.35
1884 150573381 468 123.11 189618 16.71
1885 150603211 652 262.10 189672 16.71
1886 150707552 718 366.73 189789 16.71
1887 150819975 598 199.82 189912 16.71
1888 150825795 675 317.99 189932 16.71
1889 150831796 158 27.53 189958 16.71
1890 150854479 254 43.77 190007 16.71
1891 150862974 783 633.54 190043 16.71
1892 150962783 369 73.42 190173 17.14
1893 151026465 761 540.23 190252 16.71
1894 151129332 399 87.30 190366 16.71
1895 151197466 348 65.64 190456 16.71
1896 151226555 696 307.73 190504 16.71
1897 151238621 654 259.18 190534 16.71
1898 151317925 556 174.47 190636 16.71
1899 151352826 344 64.67 190691 17.35
1900 151382793 384 80.08 190736 16.71
1901 151432032 63 17.91 190808 16.92
1902 151441069 300 52.79 190836 17.35
1903 151561191 467 121.56 190998 16.71
1904 151648013 782 590.73 191109 16.71
1905 151816540 252 43.42 191308 16.71
1906 151952080 412 92.93 191450 16.71
1907 151990605 723 388.29 191503 16.71
1908 152015900 614 229.43 191556 17.89
1909 152059550 551 164.56 191622 16.71
1910 152092877 728 431.28 191682 16.71
1911 152132973 684 283.21 191739 17.35
1912 152198108 600 203.87 191825 16.71
1913 152206024 455 117.03 191852 17.14
1914 152319101 300 52.79 191985 16.71
1915 152473953 723 388.29 192168 16.71
1916 152657460 670 272.62 192398 16.71
1917 152681723 655 252.34 192441 16.71
1918 152720388 670 272.62 192496 16.71
1919 152739196 572 183.73 192541 17.35
1920 152792122 527 155.96 192609 17.35
1921 152832737 430 101.41 192677 17.57
1922 152833518 636 231.85 192700 16.71
1923 152983954 550 172.20 192891 18.00
1924 153076781 280 48.67 193002 16.71
1925 153119644 408 90.57 193073 16.71
1926 153146054 739 495.61 193126 16.71
1927 153186431 527 155.96 193173 16.71
1928 153436979 679 318.29 193477 17.35
1929 153443327 376 76.43 193505 17.35
1930 153499484 152 26.78 193576 16.71
1931 153603261 708 363.68 193698 16.71
1932 153627740 723 388.29 193744 16.71
1933 153648648 639 249.88 193787 16.71
1934 153850020 659 253.36 194025 16.71
1935 153860711 463 119.23 194055 16.71
1936 153926304 510 148.47 194142 16.71
1937 153980124 652 262.10 194212 16.71
1938 154181600 84 20.57 194432 16.71
1939 154199224 120 23.58 194474 16.71
1940 154278315 275 47.73 194565 16.71
1941 154376396 736 412.77 194691 16.71
1942 154491568 675 317.99 194819 16.71
1943 154516777 131 24.54 194870 16.71
1944 154806253 99 21.91 195181 16.71
1945 154883832 647 246.69 195280 17.35
1946 155016636 284 49.41 195467 16.71
1947 155124047 617 223.47 195600 16.71
1948 155393907 71 19.06 195894 16.71
1949 155395187 419 97.20 195917 16.71
1950 155483690 385 80.11 196037 16.71
1951 155505661 497 142.37 196084 16.71
1952 155672542 353 67.64 196276 16.71
1953 155694498 387 81.05 196320 16.71
1954 155849024 724 415.31 196485 17.89
1955 155871219 568 189.84 196526 16.71
1956 155899226 465 122.12 196576 16.71
1957 156078184 480 130.21 196773 17.35
1958 156230875 513 148.53 196956 16.71
1959 156264638 704 326.52 197001 16.71
1960 156292182 384 80.08 197056 17.35
1961 156405720 723 388.29 197177 16.71
1962 156443498 796 596.63 197240 16.71
1963 156504369 478 129.43 197317 16.71
1964 156620833 704 326.52 197438 16.71
1965 156711780 670 272.62 197552 16.71
1966 156730316 159 27.66 197592 16.71
1967 156791062 809 690.56 197669 16.71
1968 156807115 377 76.28 197712 16.71
1969 156861222 350 66.46 197774 16.71
1970 156992334 664 270.86 197927 17.35
1971 157101605 448 112.41 198054 16.71
1972 157207575 652 262.10 198189 16.71
1973 157310752 696 307.73 198320 16.71
1974 157382596 743 466.23 198409 16.71
1975 157504212 704 326.52 198541 16.71
1976 157508653 510 148.47 198567 16.71
1977 157530949 344 64.67 198613 16.71
1978 157640928 428 101.58 198747 18.00
1979 157758497 430 101.41 198885 16.71
1980 157996594 419 97.20 199177 16.71
1981 158023658 428 101.58 199224 16.71
1982 158152964 366 72.41 199378 16.71
1983 158231429 760 464.80 199493 16.71
1984 158290195 671 277.06 199576 16.71
1985 158316052 473 126.29 199626 16.71
1986 158330695 736 412.77 199659 16.71
1987 158337713 771 600.02 199688 16.71
1988 158479531 540 166.11 199870 16.71
1989 158625791 71 19.06 200031 16.71
1990 158637904 496 144.49 200062 16.71
1991 158844495 755 529.80 200289 16.71
1992 158895738 716 337.96 200357 16.71
1993 158921740 716 337.96 200402 17.57
1994 159022430 719 344.94 200512 16.71
1995 159286750 561 174.17 200779 16.71
1996 159298589 391 82.35 200803 16.71
1997 159405460 760 464.80 200931 16.71
1998 159429346 696 307.73 200971 16.71
1999 159656445 590 200.72 201226 16.71
2000 159669366 652 262.10 201259 17.35
2001 159732148 671 277.06 201334 16.71
2002 159781062 462 120.87 201415 17.35
2003 159820644 444 109.09 201481 16.49
2004 159835025 664 270.86 201517 16.71
2005 159859885 147 26.19 201560 16.71
2006 159974712 718 366.73 201697 16.71
2007 160129347 540 166.11 201885 16.71
2008 160143073 295 51.75 201915 16.71
2009 160219454 664 270.86 202010 16.71
2010 160283405 113 23.02 202107 16.71
2011 160285480 435 104.92 202133 17.35
2012 160332097 711 380.66 202190 16.71
2013 160443578 560 175.34 202314 17.35
2014 160486980 719 344.94 202380 16.71
2015 160736226 319 57.64 202648 17.35
2016 160774401 614 229.43 202709 16.71
2017 160810789 679 318.29 202759 17.35
2018 160848647 260 44.83 202821 16.71
2019 160944567 308 54.81 202960 17.35
2020 161004157 440 109.25 203034 16.71
2021 161028507 94 21.50 203081 16.71
2022 161087681 54 16.41 203161 17.35
2023 161123775 263 45.37 203220 16.71
2024 161143621 729 380.02 203265 16.71
2025 161250077 113 23.02 203376 18.00
2026 161350548 352 66.89 203511 16.71
2027 161513274 476 129.76 203713 16.71
2028 161741808 768 471.89 203978 17.35
2029 161798012 518 151.06 204047 17.35
2030 161805693 271 46.93 204074 16.71
2031 161909681 684 283.21 204191 17.35
2032 161928549 67 18.51 204230 16.71
2033 161948030 728 431.28 204268 18.00
2034 161959015 372 74.27 204300 16.71
2035 161972437 691 332.16 204340 16.71
2036 162011866 560 175.34 204404 16.71
2037 162118381 231 39.55 204514 16.71
2038 162158302 696 307.73 204567 16.71
2039 162184697 600 203.87 204613 16.71
2040 162207992 73 19.32 204661 16.71
2041 162227642 689 300.98 204696 16.71
2042 162314118 127 24.18 204804 16.71
2043 162382637 408 90.57 204885 16.71
2044 162390818 575 187.30 204911 17.35
2045 162414812 327 59.28 204956 16.71
2046 162549732 696 307.73 205125 16.71
2047 162664607 723 388.29 205256 16.71
2048 162691669 455 117.03 205300 16.71
2049 162755476 337 62.30 205397 17.35
2050 162849419 515 147.53 205508 16.71
2051 162855929 711 380.66 205534 16.71
2052 162940432 691 332.16 205627 16.71
2053 162971902 719 344.94 205671 16.71
2054 163146137 647 246.69 205860 17.35
2055 163349927 659 253.36 206083 16.71
2056 163382889 696 307.73 206135 16.71
2057 163502855 655 252.34 206288 16.71
2058 163625695 659 253.36 206433 17.35
2059 163642618 152 26.78 206470 16.71
2060 163679718 350 66.46 206522 17.35
2061 163809243 620 217.12 206674 16.71
2062 163836641 689 300.98 206728 16.71
2063 163883973 54 16.41 206801 16.71
2064 164170328 668 291.28 207117 16.71
2065 164350910 519 154.30 207318 16.71
2066 164538357 143 25.74 207562 16.71
2067 164645201 380 78.12 207688 16.71
2068 164845624 719 344.94 207912 16.71
2069 164861346 707 320.63 207946 16.71
2070 164902379 705 364.03 208014 17.35
2071 164909746 455 117.03 208046 16.71
2072 165219508 700 294.28 208421 16.71
2073 165240514 688 328.69 208461 18.00
2074 165251168 399 87.30 208493 16.71
2075 165408402 668 291.28 208639 18.00
2076 165509752 704 326.52 208753 16.71
2077 165539974 527 155.96 208801 16.71
2078 165665363 736 412.77 208946 16.71
2079 165762790 287 50.23 209058 17.14
2080 165790468 740 403.54 209101 16.71
2081 165843563 713 333.08 209172 17.78
2082 165869027 462 120.87 209225 18.00
2083 165948142 224 38.29 209317 16.71
2084 165959568 831 853.96 209350 16.71
2085 166249016 671 277.06 209657 16.71
2086 166280037 719 344.94 209707 16.71
2087 166294899 691 332.16 209743 17.35
2088 166303597 376 76.43 209768 16.71
2089 166457176 679 318.29 209954 16.71
2090 166458665 364 71.71 209974 16.71
2091 166464307 647 246.69 210000 16.71
2092 166541761 679 318.29 210105 16.71
2093 166571101 295 51.75 210161 17.35
2094 166578941 771 600.02 210189 16.71
2095 166609314 414 93.93 210239 18.00
2096 166647603 280 48.67 210302 17.35
2097 166831226 721 433.48 210483 17.35
2098 166848190 664 270.86 210517 16.71
2099 166865587 387 81.05 210554 16.71
2100 166889671 396 85.28 210600 16.71
2101 166897540 711 380.66 210632 16.71
2102 166907731 679 318.29 210668 16.71
2103 167198575 412 92.93 210995 16.71
2104 167428499 359 69.86 211231 17.35
2105 167482793 62 17.75 211307 16.71
2106 167502376 329 59.91 211346 16.71
2107 167596838 655 252.34 211455 16.71
2108 167656838 63 17.91 211542 16.71
2109 167683871 112 22.94 211585 16.71
2110 167704064 448 112.41 211636 16.71
2111 167773526 115 23.18 211724 17.35
2112 167779730 332 61.17 211749 16.71
2113 167847508 737 467.99 211839 17.35
2114 167924757 161 27.93 211937 16.71
2115 168028079 716 337.96 212064 16.71
2116 168169420 604 210.97 212215 16.71
2117 168219880 704 326.52 212292 16.71
2118 168326443 433 104.37 212432 16.71
2119 168379676 550 172.20 212496 16.71
2120 168456056 403 88.99 212587 16.71
2121 168530160 752 487.99 212665 16.71
2122 168581306 463 119.23 212751 16.60
2123 168700963 327 59.28 212891 17.46
2124 168716733 63 17.91 212930 16.71
2125 168726569 448 112.41 212961 16.71
2126 168740935 143 25.74 212997 16.71
2127 168764708 319 57.64 213042 16.60
2128 168848577 332 61.17 213143 16.71
2129 168891039 496 144.49 213205 16.71
2130 168909752 380 78.12 213247 16.71
2131 168915057 238 40.82 213274 16.71
2132 169079625 659 253.36 213478 16.71
2133 169196898 798 700.68 213634 16.71
2134 169259080 513 148.53 213714 16.71
2135 169328342 728 431.28 213797 17.14
2136 169399060 684 283.21 213892 17.46
2137 169401367 79 20.03 213914 16.49
2138 169417528 696 307.73 213954 17.35
2139 169436323 455 117.03 213997 16.71
2140 169614211 774 587.37 214194 16.71
2141 169747567 688 328.69 214344 17.35
2142 169791512 728 431.28 214424 16.60
2143 169952054 783 633.54 214608 16.71
2144 170029877 71 19.06 214703 16.71
2145 170088847 291 50.97 214784 16.92
2146 170200760 396 85.28 214937 17.35
2147 170222197 743 466.23 214985 16.71
2148 170446303 457 118.95 215247 16.71
2149 170505209 711 380.66 215320 16.71
2150 170582149 739 495.61 215416 16.71
2151 170607732 719 344.94 215462 16.71
2152 170625057 307 54.48 215489 16.71
2153 170658728 102 22.15 215541 16.71
2154 170728451 684 283.21 215635 16.71
2155 170768623 664 270.86 215703 16.71
2156 171094946 231 39.55 216011 16.71
2157 171133005 467 121.56 216075 16.71
2158 171185009 632 232.56 216149 16.71
2159 171208203 728 431.28 216188 16.71
2160 171217458 512 144.44 216214 16.71
2161 171299564 428 101.58 216314 16.71
2162 171362046 356 68.46 216412 17.35
2163 171683071 615 227.36 216767 16.71
2164 171758580 143 25.74 216859 16.71
2165 171860367 595 212.63 216968 16.71
2166 171866201 551 164.56 216998 16.71
2167 171933372 214 36.49 217090 17.35
2168 171969308 575 187.30 217152 16.49
2169 172171257 615 227.36 217374 16.71
2170 172237768 540 166.11 217457 16.71
2171 172243817 678 274.92 217480 16.71
2172 172306236 728 431.28 217556 16.71
2173 172319989 239 41.02 217585 16.71
2174 172322839 396 85.28 217608 16.71
2175 172346315 569 185.56 217652 18.00
2176 172621024 519 154.30 217958 16.71
2177 172723441 647 246.69 218069 16.71
2178 172736408 465 122.12 218107 16.71
2179 172836850 745 421.25 218223 16.71
2180 172880605 103 22.23 218293 16.71
2181 172900519 280 48.67 218332 16.71
2182 172914062 289 50.47 218376 16.71
2183 172925295 135 24.92 218412 16.71
2184 173098673 172 29.49 218601 16.92
2185 173179382 241 41.39 218700 16.71
2186 173201234 519 154.30 218738 16.71
2187 173289846 419 97.20 218841 16.71
2188 173334423 318 57.28 218903 16.71
2189 173421285 608 202.86 218993 16.71
2190 173517590 355 68.30 219105 16.71
2191 173523982 467 121.56 219137 16.71
2192 173570422 335 61.77 219196 16.71
2193 173574538 433 104.37 219218 16.71
2194 173628805 348 65.64 219275 16.71
2195 173682870 344 64.67 219343 17.35
2196 173743719 376 76.43 219436 17.35
2197 173751867 601 200.55 219466 16.71
2198 173831515 679 318.29 219565 16.71
2199 173875685 627 249.17 219637 16.71
2200 173930695 231 39.55 219716 16.71
2201 174024728 376 76.43 219824 17.35
2202 174051669 371 73.82 219870 16.71
2203 174063259 679 318.29 219903 16.71
2204 174110593 582 193.83 219975 17.35
2205 174168231 505 145.23 220067 16.71
2206 174182288 435 104.92 220107 16.71
2207 174282281 664 270.86 220233 16.71
2208 174319583 777 596.45 220296 16.71
2209 174395339 696 307.73 220407 16.71
2210 174436623 176 30.09 220477 16.71
2211 174457682 49 15.48 220514 16.71
2212 174539628 686 278.39 220615 16.71
2213 174541770 368 72.93 220639 16.71
2214 174594762 732 451.17 220715 16.71
2215 174744100 591 188.65 220898 17.35
2216 174751415 724 415.31 220927 16.71
2217 174753634 622 244.71 220952 16.71
2218 174887790 696 307.73 221121 16.71
2219 174974617 750 418.67 221242 16.71
2220 175073835 384 80.08 221356 16.71
2221 175118181 376 76.43 221416 16.71
2222 175208757 476 129.76 221524 16.71
2223 175318213 679 318.29 221675 16.71
2224 175320327 399 87.30 221701 16.71
2225 175372341 711 380.66 221781 16.71
2226 175462819 719 344.94 221892 16.71
2227 175506190 686 278.39 221956 16.71
2228 175560776 135 24.92 222039 16.71
2229 175763665 255 43.96 222243 16.71
2230 176000460 748 436.69 222506 16.71
2231 176102326 659 253.36 222617 16.71
2232 176191335 201 34.22 222726 16.71
2233 176273931 655 252.34 222839 16.71
2234 176305158 408 90.57 222881 16.71
2235 176305510 696 307.73 222903 16.71
2236 176333268 252 43.42 222950 16.71
2237 176359123 440 109.25 222997 16.71
2238 176360150 359 69.86 223021 16.71
2239 176392280 238 40.82 223076 16.71
2240 176476769 304 53.73 223171 16.71
2241 176491205 536 160.18 223203 17.14
2242 176501116 636 231.85 223230 16.71
2243 176540655 423 97.36 223290 16.71
2244 176775211 263 45.37 223540 16.71
2245 176825968 396 85.28 223626 16.71
2246 176863632 487 132.65 223686 16.71
2247 176988285 551 164.56 223845 16.71
2248 177029067 220 37.58 223893 16.71
2249 177108847 771 600.02 223989 16.71
2250 177189911 310 55.16 224084 16.71
2251 177248043 510 148.47 224165 16.92
2252 177402363 304 53.73 224320 17.89
2253 177561591 236 40.44 224492 16.71
2254 177586296 415 95.00 224532 16.71
2255 177714011 49 15.48 224692 16.71
2256 177795868 384 80.08 224799 16.71
2257 177807406 696 307.73 224838 17.35
2258 177839579 704 326.52 224887 17.14
2259 177909902 639 249.88 224979 17.35
2260 177947465 688 328.69 225046 16.71
2261 177990612 632 232.56 225107 16.71
2262 178172254 675 317.99 225297 16.71
2263 178197368 339 62.98 225350 16.92
2264 178224314 529 156.43 225399 16.71
2265 178294669 620 217.12 225491 16.71
2266 178308991 127 24.18 225534 16.71
2267 178332880 568 189.84 225568 17.35
2268 178412549 184 31.36 225657 16.71
2269 178542580 814 598.14 225795 16.71
2270 178559727 665 286.02 225837 17.35
2271 178580549 384 80.08 225873 17.35
2272 178613569 575 187.30 225927 16.71
2273 178736583 728 431.28 226076 16.71
2274 178747685 639 249.88 226112 16.71
2275 178773382 76 19.69 226157 16.71
2276 178799326 673 288.87 226198 16.92
2277 178855887 449 112.05 226265 16.71
2278 178920686 632 232.56 226354 16.92
2279 178985343 88 20.96 226428 17.35
2280 178994163 689 300.98 226461 16.71
2281 179006155 711 380.66 226495 16.71
2282 179074926 675 317.99 226585 16.71
2283 179134582 380 78.12 226669 16.92
2284 179160052 334 61.44 226711 16.49
2285 179354250 550 172.20 226930 16.71
2286 179373389 368 72.93 226971 16.71
2287 179382291 97 21.75 226998 16.71
2288 179383553 691 332.16 227019 16.71
2289 179456404 319 57.64 227116 16.71
2290 179496947 195 33.17 227178 16.71
2291 179512692 515 147.53 227210 16.71
2292 179561507 671 277.06 227276 16.71
2293 179625776 78 19.92 227349 18.00
2294 179762729 88 20.96 227513 16.92
2295 179821800 697 299.81 227584 16.71
2296 179845864 384 80.08 227634 16.71
2297 179889051 620 217.12 227705 17.35
2298 180315134 188 32.01 228132 16.71
2299 180319865 319 57.64 228154 16.92
2300 180381296 704 326.52 228230 16.71
2301 180479607 678 274.92 228347 17.35
2302 180706479 960 1674.43 228565 17.35
2303 180719901 152 26.78 228603 16.71
2304 180773576 609 211.41 228691 16.92
2305 180972826 199 33.86 228902 16.71
2306 180991301 472 125.87 228935 16.71
2307 181059018 705 364.03 229037 16.71
2308 181111631 684 283.21 229109 17.35
2309 181151846 723 388.29 229175 16.71
2310 181206738 460 119.54 229247 16.71
2311 181259809 526 158.17 229326 16.71
2312 181281507 705 364.03 229362 16.71
2313 181505581 432 101.61 229607 16.71
2314 181515202 739 495.61 229647 16.71
2315 181978326 723 388.29 230083 17.35
2316 181978941 684 283.21 230104 16.71
2317 182078147 716 337.96 230213 16.71
2318 182111702 691 332.16 230268 17.35
2319 182169105 54 16.41 230354 16.71
2320 182265107 103 22.23 230457 16.71
2321 182270415 531 160.62 230484 16.71
2322 182374558 527 155.96 230602 16.71
2323 182402161 775 556.41 230653 16.71
2324 182429876 743 466.23 230704 16.71
2325 182464913 745 421.25 230756 16.71
2326 182478822 655 252.34 230790 16.71
2327 182583287 639 249.88 230924 16.71
2328 182826774 79 20.03 231197 16.71
2329 182836871 691 332.16 231222 16.71
2330 182930027 670 272.62 231324 17.35
2331 182993621 755 529.80 231407 16.71
2332 183011290 463 119.23 231445 16.71
2333 183188401 639 249.88 231646 16.71
2334 183278940 681 309.95 231754 16.71
2335 183397530 696 307.73 231928 16.71
2336 183694409 462 120.87 232248 16.71
2337 183798601 739 495.61 232367 16.71
2338 183963878 588 183.26 232579 16.71
2339 184086053 606 221.61 232731 16.71
2340 184107636 496 144.49 232783 16.71
2341 184190078 532 156.20 232899 16.71
2342 184239492 652 262.10 232975 16.71
2343 184304546 399 87.30 233054 16.71
2344 184380394 127 24.18 233144 16.71
2345 184497126 782 590.73 233296 18.00
2346 184615380 166 28.62 233453 16.71
2347 184704625 716 337.96 233558 16.71
2348 184738337 163 28.20 233618 16.71
2349 184835692 660 274.09 233724 16.71
2350 184864962 350 66.46 233764 16.71
2351 184935569 688 328.69 233844 16.71
2352 184967432 384 80.08 233895 16.71
2353 185098227 463 119.23 234052 18.00
2354 185156689 359 69.86 234130 16.71
2355 185157746 339 62.98 234153 16.71
2356 185221649 628 245.27 234233 16.71
2357 185262445 56 16.76 234294 16.71
2358 185273499 608 202.86 234330 16.71
2359 185307233 689 300.98 234381 16.71
2360 185509456 199 33.86 234591 16.71
2361 185529536 511 149.39 234639 17.35
2362 185647443 639 249.88 234762 16.71
2363 185687603 711 380.66 234824 16.71
2364 185716219 839 828.69 234873 16.49
2365 185968414 688 328.69 235134 16.71
2366 186039629 156 27.28 235232 16.71
2367 186152067 572 183.73 235358 16.39
2368 186356936 494 141.37 235569 18.00
2369 186387895 563 181.65 235622 16.71
2370 186771536 704 326.52 236042 17.57
2371 186889422 294 51.51 236170 16.71
2372 186996466 310 55.16 236306 16.71
2373 187356987 56 16.76 236691 17.35
2374 187400998 657 260.46 236752 16.71
2375 187404435 527 155.96 236778 16.60
2376 187483939 451 113.08 236864 17.35
2377 187591519 78 19.92 237007 16.71
2378 187681333 391 82.35 237113 17.89
2379 187687789 579 187.32 237138 16.71
2380 187708225 440 109.25 237178 16.71
2381 187718887 705 364.03 237205 16.39
2382 187745189 657 260.46 237250 16.71
2383 187764883 684 283.21 237287 16.71
2384 187847994 743 466.23 237391 16.39
2385 187911643 323 58.48 237487 16.49
2386 188015510 719 344.94 237625 16.71
2387 188059432 96 21.67 237681 16.71
2388 188173260 652 262.10 237822 16.71
2389 188230974 359 69.86 237916 16.39
2390 188268813 396 85.28 237978 17.35
2391 188288918 140 25.42 238020 16.71
2392 188340534 636 231.85 238081 17.35
2393 188383409 799 620.61 238145 16.71
2394 188501339 51 15.86 238298 16.71
2395 188502394 547 162.22 238318 16.71
2396 188617353 696 307.73 238450 16.71
2397 188741025 422 97.97 238599 16.71
2398 188935489 345 64.98 238811 16.71
2399 188988733 728 431.28 238885 16.39
2400 189168553 65 18.22 239100 16.71
2401 189221398 681 309.95 239182 16.71
2402 189271626 529 156.43 239248 17.35
2403 189430059 348 65.64 239427 16.71
2404 189468560 271 46.93 239486 16.71
2405 189489602 280 48.67 239521 16.71
2406 189540975 657 260.46 239593 16.71
2407 189622012 728 431.28 239681 16.71
2408 189716713 569 185.56 239807 16.71
2409 189996595 179 30.55 240083 16.71
2410 190004800 281 48.90 240117 16.39
2411 190044765 319 57.64 240178 16.39
2412 190344205 60 17.43 240488 16.71
2413 190360487 204 34.73 240526 16.71
2414 190449682 671 277.06 240634 16.71
2415 190453281 697 299.81 240660 16.71
2416 190570716 403 88.99 240776 16.71
2417 190661611 519 154.30 240896 17.35
2418 190751491 83 20.46 241000 16.71
2419 190874073 679 318.29 241110 16.71
2420 190908543 519 154.30 241172 16.71
2421 190953661 352 66.89 241237 16.71
2422 190984301 739 495.61 241289 16.71
2423 191027081 691 332.16 241363 16.39
2424 191247515 633 241.23 241602 16.39
2425 191265008 732 451.17 241640 16.71
2426 191379206 448 112.41 241773 16.71
2427 191387987 700 294.28 241806 16.71
2428 191416106 112 22.94 241852 17.35
2429 191596701 639 249.88 242041 16.71
2430 191657041 380 78.12 242116 16.71
2431 191760659 68 18.65 242269 16.71
2432 191779422 679 318.29 242300 16.71
2433 191814281 255 43.96 242351 16.39
2434 191849154 551 164.56 242406 16.71
2435 192002550 124 23.92 242562 16.71
2436 192014553 704 326.52 242597 16.71
2437 192141871 451 113.08 242731 16.71
2438 192232009 103 22.23 242837 16.71
2439 192250428 600 203.87 242875 16.71
2440 192479317 675 317.99 243143 16.39
2441 192606493 323 58.48 243298 16.71
2442 192631728 647 246.69 243341 16.92
2443 192655689 396 85.28 243385 16.71
2444 192680627 440 109.25 243437 16.39
2445 192709942 255 43.96 243485 16.39
2446 193206031 771 600.02 243995 16.71
2447 193343858 704 326.52 244173 16.71
2448 193424050 159 27.66 244272 16.71
2449 193487774 295 51.75 244352 16.49
2450 193535443 384 80.08 244412 16.71
2451 193656628 639 249.88 244549 16.71
2452 193682603 88 20.96 244599 16.71
2453 193783872 783 633.54 244734 16.39
2454 193793873 679 318.29 244765 16.71
2455 193808325 691 332.16 244801 16.71
2456 193879005 760 464.80 244895 16.39
2457 193887972 531 160.62 244924 16.71
2458 193967469 704 326.52 245029 16.71
2459 194017653 604 210.97 245099 16.71
2460 194042880 127 24.18 245139 16.71
2461 194058436 736 412.77 245177 16.71
2462 194114020 371 73.82 245243 16.71
2463 194201665 664 270.86 245361 17.35
2464 194244080 719 344.94 245437 16.71
2465 194286767 700 294.28 245502 16.39
2466 194630844 710 362.55 245870 16.39
2467 194698704 775 556.41 245960 16.71
2468 194725941 63 17.91 246009 16.39
2469 194849396 609 211.41 246173 16.39
2470 194858611 355 68.30 246198 16.71
2471 194936032 376 76.43 246297 16.71
2472 194994551 467 121.56 246375 16.71
2473 195043568 595 212.63 246450 16.71
2474 195136355 748 436.69 246546 17.14
2475 195196918 743 466.23 246622 16.39
2476 195234479 639 249.88 246677 16.92
2477 195285464 723 388.29 246753 16.71
2478 195355244 543 164.77 246844 16.71
2479 195536149 742 406.60 247062 16.71
2480 195575715 419 97.20 247116 16.71
2481 195690491 176 30.09 247252 16.71
2482 195798621 688 328.69 247367 16.71
2483 195809409 252 43.42 247392 16.49
2484 195817424 451 113.08 247420 16.71
2485 195876256 97 21.75 247487 16.71
2486 195886465 67 18.51 247517 16.71
2487 195929681 585 189.11 247583 16.39
2488 196032568 496 144.49 247702 16.71
2489 196156093 839 828.69 247862 16.71
2490 196231183 691 332.16 247954 16.71
2491 196361372 798 700.68 248094 16.71
2492 196583586 444 109.09 248324 16.39
2493 196649207 707 320.63 248403 16.71
2494 196656614 583 201.26 248429 16.39
2495 196674440 633 241.23 248474 16.49
2496 196678944 668 291.28 248500 16.39
2497 196774625 737 467.99 248618 16.39
2498 196802472 670 272.62 248659 16.71
2499 196925786 704 326.52 248777 16.71
2500 196976246 231 39.55 248850 16.71
2501 196978734 670 272.62 248870 16.39
2502 197121895 195 33.17 249017 16.71
2503 197122022 696 307.73 249042 16.49
2504 197154491 140 25.42 249097 16.71
2505 197321828 670 272.62 249272 16.39
2506 197738019 547 162.22 249710 16.71
2507 197812597 563 181.65 249811 16.71
2508 197894729 280 48.67 249923 16.39
2509 197988431 332 61.17 250035 16.71
2510 198036003 295 51.75 250096 16.71
2511 198275509 444 109.09 250365 16.71
2512 198365077 684 283.21 250482 16.71
2513 198568141 145 25.96 250713 16.71
2514 198700196 368 72.93 250855 16.39
2515 198994094 508 144.95 251174 16.39
2516 199051201 665 286.02 251257 16.71
2517 199097617 359 69.86 251327 16.39
2518 199137693 255 43.96 251391 16.71
2519 199184621 499 141.24 251457 16.71
2520 199258118 721 433.48 251545 16.71
2521 199329158 611 211.89 251633 16.39
2522 199333042 344 64.67 251657 16.49
2523 199514038 713 333.08 251843 16.71
2524 199521786 734 439.08 251873 16.39
2525 199755330 174 29.79 252117 16.71
2526 199978414 755 529.80 252351 16.39
2527 200106500 496 144.49 252498 16.71
2528 200177487 639 249.88 252601 16.39
2529 200398989 705 364.03 252858 16.39
2530 200431885 511 149.39 252909 16.71
2531 200432836 697 299.81 252931 16.39
2532 200558929 391 82.35 253072 16.71
2533 200564984 359 69.86 253097 16.71
2534 200640583 286 49.78 253206 16.39
2535 200661807 664 270.86 253249 16.39
2536 200712043 448 112.41 253328 16.39
2537 201015558 124 23.92 253632 16.71
2538 201030845 743 466.23 253669 16.71
2539 201139946 745 421.25 253792 16.39
2540 201289165 71 19.06 253971 16.39
2541 201302859 327 59.28 254008 16.71
2542 201463559 332 61.17 254201 16.71
2543 201497097 600 203.87 254259 16.60
2544 201530500 335 61.77 254309 16.71
2545 201531361 536 160.18 254330 16.71
2546 201782440 275 47.73 254613 16.71
2547 201830080 366 72.41 254671 16.71
2548 201863702 391 82.35 254715 16.71
2549 201897877 563 181.65 254761 16.71
2550 202084290 768 471.89 254973 16.71
2551 202328988 319 57.64 255254 16.71
2552 202365538 428 101.58 255307 16.39
2553 202497265 390 82.70 255469 16.39
2554 202535610 547 162.22 255522 16.71
2555 202571264 768 471.89 255587 16.71
2556 202982543 556 174.47 256031 16.39
2557 203007213 163 28.20 256080 16.71
2558 203070996 371 73.82 256154 16.71
2559 203072907 304 53.73 256178 16.71
2560 203153908 575 187.30 256274 16.39
2561 203369745 670 272.62 256507 16.71
2562 203476637 467 121.56 256628 16.39
2563 203478555 664 270.86 256651 16.71
2564 203657658 368 72.93 256882 16.71
2565 203781201 707 320.63 257020 16.39
2566 203801672 511 149.39 257060 16.39
2567 203847106 543 164.77 257124 16.39
2568 203871443 706 334.98 257184 16.39
2569 204087882 499 141.24 257393 16.39
2570 204109477 716 337.96 257431 16.39
2571 204194667 742 406.60 257527 16.39
2572 204382439 691 332.16 257747 16.39
2573 204408542 115 23.18 257788 16.39
2574 204423141 780 538.09 257822 16.39
2575 204527506 647 246.69 257943 16.39
2576 204579931 572 183.73 258025 16.71
2577 204601537 668 291.28 258070 16.39
2578 204627434 664 270.86 258130 16.71
2579 204668069 444 109.09 258198 16.39
2580 205009241 627 249.17 258547 16.39
2581 205061061 691 332.16 258636 16.60
2582 205068236 659 253.36 258665 16.71
2583 205119389 696 307.73 258742 16.71
2584 205125570 384 80.08 258772 16.39
2585 205239930 704 326.52 258889 16.71
2586 205277766 608 202.86 258944 16.71
2587 205373172 668 291.28 259054 16.71
2588 205427918 455 117.03 259127 16.49
2589 205581636 697 299.81 259296 16.71
2590 205626630 655 252.34 259367 16.71
2591 205695013 593 187.91 259477 16.71
2592 205794794 728 431.28 259575 16.39
2593 205887120 408 90.57 259694 16.39
2594 205906097 366 72.41 259735 16.39
2595 206020240 207 35.26 259882 16.71
2596 206176602 639 249.88 260049 16.71
2597 206218877 748 436.69 260108 16.39
2598 206427026 792 615.27 260319 16.39
2599 206441352 185 31.51 260356 16.39
2600 206536550 396 85.28 260454 16.39
2601 206553599 719 344.94 260494 16.71
2602 206911018 527 155.96 260884 16.39
2603 206956520 118 23.42 260956 16.71
2604 207081519 679 318.29 261098 16.71
2605 207100513 451 113.08 261144 16.71
2606 207132466 231 39.55 261194 17.35
2607 207238169 716 337.96 261309 16.39
2608 207393950 384 80.08 261482 16.39
2609 207482928 496 144.49 261606 16.39
2610 207541175 132 24.63 261685 16.39
2611 207592922 499 141.24 261747 16.71
2612 207716086 94 21.50 261893 16.60
2613 207910877 291 50.97 262089 16.39
2614 207934488 83 20.46 262132 16.39
2615 207986421 679 318.29 262194 15.74
2616 208072477 590 200.72 262295 16.39
2617 208090095 684 283.21 262334 16.39
2618 208140094 403 88.99 262398 16.71
2619 208162333 188 32.01 262453 16.71
2620 208169296 780 538.09 262481 16.71
2621 208351458 487 132.65 262678 16.71
2622 208482796 327 59.28 262814 16.71
2623 208630265 344 64.67 262990 16.17
2624 208687709 494 141.37 263082 16.71
2625 208990390 177 30.25 263407 16.39
2626 209054530 518 151.06 263507 16.71
2627 209171431 496 144.49 263633 16.39
2628 209250940 83 20.46 263724 16.39
2629 209386270 248 42.69 263857 15.96
2630 209520513 344 64.67 264014 16.39
2631 209598137 608 202.86 264117 16.71
2632 209623182 684 283.21 264160 15.74
2633 209730689 753 514.96 264292 15.74
2634 209853847 799 620.61 264433 16.71
2635 209954031 412 92.93 264547 16.71
2636 209978829 611 211.89 264592 16.39
2637 210050663 671 277.06 264683 15.74
2638 210079649 664 270.86 264739 16.71
2639 210239981 344 64.67 264930 16.60
2640 210390019 294 51.51 265103 16.71
2641 210414874 716 337.96 265147 16.39
2642 210449347 659 253.36 265203 16.71
2643 210638304 67 18.51 265409 15.74
2644 210695557 752 487.99 265486 16.71
2645 210763688 166 28.62 265570 16.71
2646 210802563 433 104.37 265620 16.39
2647 210824730 515 147.53 265657 16.71
2648 210863034 632 232.56 265720 16.39
2649 211001374 393 83.55 265878 16.71
2650 211040039 472 125.87 265940 16.39
2651 211065268 184 31.36 265989 16.39
2652 211119338 772 477.84 266063 16.71
2653 211166070 348 65.64 266126 16.71
2654 211295278 172 29.49 266273 16.71
2655 211316771 711 380.66 266318 16.39
2656 211316858 606 221.61 266338 16.71
2657 211475335 796 596.63 266520 16.71
2658 211513018 742 406.60 266593 16.49
2659 211638458 163 28.20 266747 16.71
2660 211663987 664 270.86 266794 16.60
2661 211702523 753 514.96 266840 16.71
2662 211845162 344 64.67 267003 16.71
2663 211856520 615 227.36 267037 16.71
2664 211941117 455 117.03 267128 16.71
2665 212260635 622 244.71 267444 16.39
2666 212264714 752 487.99 267469 16.39
2667 212264763 364 71.71 267489 16.39
2668 212271558 713 333.08 267517 16.71
2669 212274204 646 271.78 267539 16.71
2670 212277004 696 307.73 267564 16.71
2671 212648283 647 246.69 267957 16.71
2672 212692640 463 119.23 268019 16.39
2673 212702631 521 150.31 268051 16.71
2674 212837417 529 156.43 268203 16.39
2675 212925472 659 253.36 268320 16.71
2676 212926580 696 307.73 268343 15.74
2677 212944027 340 63.47 268381 16.39
2678 212961373 487 132.65 268429 16.71
2679 212983532 615 227.36 268465 16.71
2680 213005102 152 26.78 268506 16.71
2681 213045703 807 770.01 268573 16.39
2682 213067870 732 451.17 268617 16.71
2683 213115852 575 187.30 268673 16.71
2684 213146110 734 439.08 268739 16.71
2685 213202221 240 41.21 268820 16.39
2686 213302464 432 101.61 268951 16.39
2687 213372554 649 269.34 269041 16.71
2688 213373464 448 112.41 269062 16.60
2689 213453476 463 119.23 269166 16.71
2690 213473220 332 61.17 269209 16.39
2691 213490102 734 439.08 269252 16.39
2692 213592825 684 283.21 269373 15.96
2693 213640046 359 69.86 269447 16.71
2694 213645063 254 43.77 269471 16.39
2695 213749154 659 253.36 269595 16.39
2696 213850224 254 43.77 269694 16.71
2697 213858748 705 364.03 269731 16.71
2698 213885308 408 90.57 269788 16.71
2699 214067052 732 451.17 269993 16.71
2700 214180486 241 41.39 270128 16.39
2701 214242349 649 269.34 270211 16.71
2702 214263497 590 200.72 270260 16.60
2703 214401986 671 277.06 270395 16.39
2704 215289609 719 344.94 271324 16.60
2705 215312350 671 277.06 271366 16.71
2706 215523684 647 246.69 271585 16.71
2707 215581976 76 19.69 271659 16.71
2708 215803959 704 326.52 271903 16.71
2709 215882366 182 31.03 272002 16.71
2710 215890474 655 252.34 272031 16.71
2711 216028905 135 24.92 272194 15.96
2712 216138395 415 95.00 272334 16.39
2713 216586519 463 119.23 272791 16.71
2714 216588575 152 26.78 272813 16.71
2715 216721275 736 412.77 272981 15.74
2716 216747719 60 17.43 273033 16.39
2717 216770618 286 49.78 273080 15.74
2718 216935329 545 167.38 273274 16.71
2719 217162321 711 380.66 273544 16.39
2720 217376746 531 160.62 273774 16.39
2721 217391742 670 272.62 273811 16.71
2722 217423676 230 39.39 273868 16.39
2723 217430551 696 307.73 273899 15.74
2724 217450361 775 556.41 273942 16.39
2725 217671321 678 274.92 274176 15.74
2726 217672934 736 412.77 274199 16.71
2727 217735366 710 362.55 274281 16.71
2728 217827683 222 37.96 274395 16.71
2729 217907193 65 18.22 274498 15.96
2730 217911139 526 158.17 274525 16.39
2731 217928489 348 65.64 274563 16.39
2732 218041163 688 328.69 274695 16.39
2733 218051576 387 81.05 274726 16.39
2734 218174707 780 538.09 274857 16.39
2735 218239216 270 46.71 274943 16.71
2736 218358826 88 20.96 275099 16.49
2737 218365117 639 249.88 275129 16.71
2738 218411063 691 332.16 275202 16.71
2739 218506961 777 596.45 275315 15.74
2740 218509637 711 380.66 275336 16.39
2741 218621162 422 97.97 275479 16.71
2742 218726574 441 109.77 275587 16.49
2743 218749877 452 114.20 275633 16.39
2744 218922752 473 126.29 275816 16.39
2745 218993306 110 22.78 275906 15.74
2746 219056216 652 262.10 275992 16.39
2747 219059092 600 203.87 276016 16.39
2748 219254931 412 92.93 276214 16.71
2749 219333174 711 380.66 276338 16.39
2750 219364561 803 573.92 276389 15.74
2751 219468170 207 35.26 276525 15.74
2752 219756352 440 109.25 276818 16.17
2753 219807080 755 529.80 276882 16.39
2754 219909593 671 277.06 277001 16.71
2755 219933696 736 412.77 277046 16.71
2756 219951951 679 318.29 277083 16.71
2757 219963862 595 212.63 277112 16.71
2758 220080714 204 34.73 277254 16.39
2759 220456932 739 495.61 277625 15.74
2760 220742417 487 132.65 277942 16.39
2761 220973485 230 39.39 278188 16.71
2762 221005895 96 21.67 278237 16.39
2763 221106063 688 328.69 278346 15.74
2764 221250216 543 164.77 278505 16.39
2765 221314371 414 93.93 278592 15.74
2766 221556766 696 307.73 278867 16.39
2767 221644523 384 80.08 278985 16.39
2768 221668304 588 183.26 279037 15.74
2769 221678237 89 21.05 279073 16.17
2770 221740386 352 66.89 279160 16.71
2771 221755587 659 253.36 279199 16.60
2772 221760621 684 283.21 279226 15.74
2773 221824358 476 129.76 279311 16.60
2774 222005244 673 288.87 279541 15.74
2775 222076634 671 277.06 279646 15.74
2776 222217530 455 117.03 279789 15.74
2777 222248074 345 64.98 279839 16.60
2778 222257639 696 307.73 279870 15.74
2779 222259921 620 217.12 279891 16.39
2780 222279099 719 344.94 279931 16.71
2781 222281688 668 291.28 279953 15.74
2782 222427492 696 307.73 280110 16.39
2783 222576521 419 97.20 280290 15.96
2784 222845155 659 253.36 280567 16.71
2785 222888314 415 95.00 280636 16.71
2786 223007674 89 21.05 280764 15.74
2787 223010573 615 227.36 280795 15.74
2788 223088528 81 20.25 280906 16.39
2789 223158374 627 249.17 280987 15.74
2790 223163875 492 134.92 281012 15.96
2791 223317523 615 227.36 281188 16.71
2792 223423738 691 332.16 281294 16.71
2793 223439235 743 466.23 281327 15.74
2794 223459222 668 291.28 281359 16.39
2795 223486445 135 24.92 281405 16.39
2796 223517896 736 412.77 281452 16.39
2797 223655719 65 18.22 281606 15.74
2798 223683967 688 328.69 281662 15.74
2799 223706966 696 307.73 281707 16.71
2800 223848283 782 590.73 281857 16.71
2801 224112562 472 125.87 282128 16.71
2802 224187114 438 107.18 282214 15.74
2803 224307144 681 309.95 282365 16.39
2804 224315098 527 155.96 282393 16.71
2805 224401070 403 88.99 282499 16.71
2806 224487295 259 44.69 282610 16.60
2807 224611940 167 28.76 282757 16.71
2808 224642451 335 61.77 282810 16.71
2809 224677090 112 22.94 282864 15.74
2810 224750610 472 125.87 282970 16.39
2811 224761811 409 91.12 283006 16.39
2812 224804210 334 61.44 283065 15.74
2813 224809087 819 689.10 283092 15.74
2814 224856074 145 25.96 283173 16.39
2815 224985822 481 129.57 283302 16.71
2816 225039150 291 50.97 283379 16.71
2817 225270400 231 39.55 283657 16.39
2818 225562815 639 249.88 283991 16.39
2819 225606473 152 26.78 284047 15.74
2820 225760302 710 362.55 284207 15.74
2821 225817393 625 226.08 284276 16.71
2822 226323954 664 270.86 284834 15.74
2823 226350362 451 113.08 284882 16.17
2824 226520270 568 189.84 285085 16.71
2825 226521586 448 112.41 285106 15.74
2826 226759775 639 249.88 285373 16.39
2827 226857975 300 52.79 285485 16.71
2828 226909822 318 57.28 285565 15.74
2829 227036767 254 43.77 285716 16.71
2830 227295455 335 61.77 285990 15.74
2831 227331406 636 231.85 286046 16.39
2832 227395530 719 344.94 286134 16.39
2833 227400801 521 150.31 286160 15.74
2834 227437298 147 26.19 286218 15.74
2835 227640641 497 142.37 286430 16.39
2836 227722691 711 380.66 286549 16.39
2837 227784846 440 109.25 286623 16.71
2838 228000109 575 187.30 286873 16.39
2839 228000849 668 291.28 286898 16.39
2840 228074910 601 200.55 286985 15.74
2841 228322962 57 16.93 287256 16.39
2842 228337822 240 41.21 287290 16.71
2843 228750517 73 19.32 287715 15.74
2844 228818853 512 144.44 287800 16.39
2845 229103851 614 229.43 288130 15.96
2846 229237655 270 46.71 288282 15.74
2847 229343928 526 158.17 288421 15.74
2848 229660163 671 277.06 288794 15.74
2849 229723323 668 291.28 288864 16.39
2850 229733111 600 203.87 288893 15.74
2851 229809420 478 129.43 289000 16.39
2852 229822429 335 61.77 289034 15.74
2853 229870396 639 249.88 289101 15.74
2854 229925367 716 337.96 289167 15.74
2855 230016561 359 69.86 289291 15.74
2856 230029630 184 31.36 289335 16.17
2857 230143139 668 291.28 289470 16.39
2858 230278033 224 38.29 289627 16.71
2859 230394396 467 121.56 289761 15.74
2860 230480148 280 48.67 289858 15.74
2861 230562837 660 274.09 289957 16.39
2862 230692240 696 307.73 290094 15.74
2863 230718793 664 270.86 290139 15.96
2864 230868809 216 36.85 290315 16.39
2865 230947712 352 66.89 290426 16.71
2866 230986353 340 63.47 290487 16.39
2867 231096743 496 144.49 290629 16.71
2868 231132632 452 114.20 290692 15.96
2869 231133541 777 596.45 290713 16.71
2870 231214085 300 52.79 290815 16.39
2871 231265258 73 19.32 290881 15.74
2872 231265710 700 294.28 290902 16.71
2873 231317223 719 344.94 290985 16.39
2874 231431208 384 80.08 291133 16.49
2875 231464001 115 23.18 291189 16.49
2876 231543594 63 17.91 291294 16.39
2877 231658149 664 270.86 291417 16.39
2878 231854688 639 249.88 291661 16.39
2879 231885083 590 200.72 291720 16.39
2880 231910335 684 283.21 291761 16.39
2881 231932179 425 99.48 291814 16.39
2882 231933067 511 149.39 291838 16.39
2883 231939002 334 61.44 291869 16.71
2884 232030674 691 332.16 291985 16.39
2885 232061679 275 47.73 292036 16.39
2886 232068509 668 291.28 292067 16.39
2887 232140987 632 232.56 292175 16.71
2888 232151564 97 21.75 292208 16.39
2889 232304045 483 132.60 292387 16.39
2890 232493164 628 245.27 292606 15.74
2891 232591744 216 36.85 292714 16.39
2892 232653526 287 50.23 292797 15.96
2893 232662604 412 92.93 292822 15.74
2894 232668607 131 24.54 292851 16.39
2895 232708123 696 307.73 292897 15.74
2896 232762712 48 15.29 292975 15.74
2897 232933980 480 130.21 293160 16.71
2898 233053134 319 57.64 293308 16.71
2899 233200406 624 242.54 293485 16.39
2900 233283890 768 471.89 293596 16.39
2901 233309025 355 68.30 293638 15.74
2902 233344330 639 249.88 293687 15.74
2903 233452604 678 274.92 293810 15.74
2904 233461715 655 252.34 293843 16.71
2905 233489120 675 317.99 293896 16.39
2906 233526465 252 43.42 293953 16.39
2907 233563378 152 26.78 294023 16.39
2908 233817215 655 252.34 294286 16.71
2909 233872830 204 34.73 294369 16.71
2910 234003006 291 50.97 294537 16.60
2911 234070943 143 25.74 294609 16.49
2912 234288969 718 366.73 294853 16.71
2913 234348719 675 317.99 294936 16.39
2914 234395336 391 82.35 295009 16.71
2915 234420488 188 32.01 295059 16.49
2916 234490039 551 164.56 295149 16.71
2917 234522944 713 333.08 295201 15.74
2918 234612859 588 183.26 295315 16.71
2919 234695098 700 294.28 295439 16.39
2920 234779319 671 277.06 295545 16.39
2921 234833383 254 43.77 295623 16.71
2922 234861424 675 317.99 295665 16.71
2923 234907783 771 600.02 295736 15.74
2924 234982859 780 538.09 295838 15.74
2925 234985354 711 380.66 295859 16.71
2926 235038179 691 332.16 295934 16.39
2927 235150021 686 278.39 296064 15.74
2928 235152430 177 30.25 296088 16.39
2929 235376712 440 109.25 296327 16.71
2930 235424536 76 19.69 296393 15.74
2931 235461681 481 129.57 296437 16.71
2932 235503561 305 53.88 296509 16.71
2933 235846624 448 112.41 296888 16.71
2934 235919921 304 53.73 296987 15.74
2935 235983159 633 241.23 297068 15.74
2936 236017121 679 318.29 297124 15.74
2937 236033931 531 160.62 297156 15.74
2938 236104507 444 109.09 297252 16.71
2939 236147531 638 261.42 297315 16.71
2940 236218920 449 112.05 297405 15.74
2941 236224753 718 366.73 297428 15.74
2942 236353205 489 138.11 297589 16.17
2943 236376106 729 380.02 297631 15.74
2944 236634871 140 25.42 297888 16.39
2945 236768786 748 436.69 298039 16.39
2946 236800986 472 125.87 298094 16.71
2947 236809101 240 41.21 298122 15.74
2948 236934255 711 380.66 298267 16.71
2949 236934336 174 29.79 298288 15.74
2950 236945150 604 210.97 298323 15.74
2951 237047286 739 495.61 298444 15.74
2952 237136193 732 451.17 298538 16.71
2953 237197700 487 132.65 298620 16.39
2954 237259133 652 262.10 298700 16.71
2955 237410794 688 328.69 298857 16.71
2956 237606589 543 164.77 299081 16.39
2957 237608602 56 16.76 299104 16.39
2958 237648778 467 121.56 299171 15.74
2959 237659000 911 1247.09 299201 16.39
2960 237668087 207 35.26 299230 16.49
2961 237704931 593 187.91 299294 15.74
2962 237729298 806 675.82 299340 16.39
2963 237736717 689 300.98 299371 16.39
2964 237817432 719 344.94 299458 15.74
2965 237980653 387 81.05 299677 16.71
2966 238001213 487 132.65 299718 15.74
2967 238073178 639 249.88 299818 15.74
2968 238155786 263 45.37 299917 16.39
2969 238198644 614 229.43 299982 16.39
2970 238222620 231 39.55 300024 16.71
2971 238274224 385 80.11 300105 16.71
2972 238581517 51 15.86 300457 16.71
2973 238631113 729 380.02 300532 16.39
2974 238672679 847 662.39 300583 16.39
2975 238731437 671 277.06 300644 15.74
2976 238781347 760 464.80 300714 16.71
2977 238884807 655 252.34 300825 16.71
2978 238905582 384 80.08 300869 16.39
2979 238934328 732 451.17 300910 16.71
2980 238962030 323 58.48 300962 16.71
2981 238997955 193 32.84 301017 16.39
2982 239006996 745 421.25 301047 16.71
2983 239034429 110 22.78 301099 16.39
2984 239041050 263 45.37 301128 16.71
2985 239082293 249 42.85 301194 16.60
2986 239147188 684 283.21 301289 16.71
2987 239214484 716 337.96 301389 16.71
2988 239269222 511 149.39 301458 16.71
2989 239360945 707 320.63 301577 16.92
2990 239549771 753 514.96 301769 16.71
2991 239623412 284 49.41 301845 16.71
2992 239848896 771 600.02 302094 16.71
2993 240104306 67 18.51 302375 17.35
2994 240216781 639 249.88 302519 16.71
2995 240386242 390 82.70 302693 17.35
2996 240674964 675 317.99 302988 17.35
2997 240676009 627 249.17 303009 17.68
2998 240692992 707 320.63 303049 16.71
2999 240921205 364 71.71 303284 16.71
3000 240977818 590 200.72 303368 16.71
3001 241031604 449 112.05 303442 17.35
3002 241093569 575 187.30 303536 18.00
3003 241146231 158 27.53 303608 17.35
3004 241182040 743 466.23 303670 16.71
3005 241182897 652 262.10 303691 17.35
3006 241264909 678 274.92 303783 16.71
3007 241473374 632 232.56 304028 16.71
3008 241597674 588 183.26 304166 16.71
3009 241677291 857 901.16 304276 16.71
3010 241958822 60 17.43 304581 16.71
3011 242059043 691 332.16 304704 18.00
3012 242099240 448 112.41 304761 16.71
3013 242164779 417 95.20 304845 17.35
3014 242305095 867 898.02 305005 16.71
3015 242353809 600 203.87 305078 18.00
3016 242502619 531 160.62 305244 17.35
3017 242513241 579 187.32 305277 18.00
3018 242655751 355 68.30 305429 16.71
3019 242765138 719 344.94 305545 16.71
3020 242778209 419 97.20 305583 16.71
3021 242857594 304 53.73 305666 18.00
3022 242862399 704 326.52 305692 16.71
3023 242871515 679 318.29 305720 16.71
3024 242999268 689 300.98 305847 18.00
3025 243016856 348 65.64 305891 17.35
3026 243027635 57 16.93 305923 18.00
3027 243224998 707 320.63 306141 16.71
3028 243392593 359 69.86 306320 18.00
3029 243402039 760 464.80 306346 17.35
3030 243408317 739 495.61 306377 16.71
3031 243514363 478 129.43 306512 16.71
3032 243527930 728 431.28 306547 17.35
3033 243558589 659 253.36 306610 17.35
3034 243597903 448 112.41 306665 16.71
3035 243716931 745 421.25 306809 16.71
3036 243745447 457 118.95 306856 16.71
3037 243755548 88 20.96 306889 17.35
3038 243888520 632 232.56 307044 16.71
3039 243897657 688 328.69 307073 16.71
3040 243910955 300 52.79 307108 16.71
3041 243930624 700 294.28 307150 18.00
3042 243987998 728 431.28 307234 18.00
3043 243995282 627 249.17 307260 16.71
3044 244063784 760 464.80 307351 16.71
3045 244095011 408 90.57 307397 18.00
3046 244182703 617 223.47 307503 17.35
3047 244276345 457 118.95 307612 18.00
3048 244286622 492 134.92 307645 16.71
3049 244417552 627 249.17 307773 16.71
3050 244440813 652 262.10 307821 18.00
3051 244666246 536 160.18 308073 17.35
3052 244793025 152 26.78 308222 16.71
3053 244892573 487 132.65 308334 16.71
3054 244962275 792 615.27 308424 16.71
3055 244975135 604 210.97 308454 18.00
3056 245024075 84 20.57 308530 18.00
3057 245156207 728 431.28 308690 17.35
3058 245245169 679 318.29 308817 17.35
3059 245320595 436 106.16 308917 18.00
3060 245350535 371 73.82 308966 18.00
3061 245691447 270 46.71 309330 16.71
3062 245709128 675 317.99 309370 16.71
3063 245857643 396 85.28 309541 16.71
3064 245917815 224 38.29 309619 16.71
3065 245922788 220 37.58 309651 18.00
3066 246125384 84 20.57 309881 18.00
3067 246267150 263 45.37 310053 16.71
3068 246362837 344 64.67 310174 17.57
3069 246414622 255 43.96 310258 16.92
3070 246464965 236 40.44 310333 16.71
3071 246684379 275 47.73 310570 17.35
3072 246684756 716 337.96 310595 16.71
3073 246685159 753 514.96 310616 16.71
3074 246719892 448 112.41 310671 17.35
3075 246839979 159 27.66 310796 18.00
3076 246886540 760 464.80 310884 17.35
3077 246888381 568 189.84 310906 16.71
3078 246895418 496 144.49 310935 16.71
3079 246963049 206 35.07 311040 17.35
3080 247104681 681 309.95 311209 18.00
3081 247225567 639 249.88 311340 17.35
3082 247255282 401 87.91 311397 16.71
3083 247386460 700 294.28 311547 16.71
3084 247434684 614 229.43 311625 16.71
3085 247514106 508 144.95 311728 16.71
3086 247578090 608 202.86 311819 17.35
3087 247586754 755 529.80 311853 16.71
3088 247697505 671 277.06 311985 16.71
3089 247705556 440 109.25 312017 16.71
3090 248033233 280 48.67 312343 18.00
3091 248072263 755 529.80 312398 17.35
3092 248165327 174 29.79 312519 18.00
3093 248170627 448 112.41 312541 18.00
3094 248186870 696 307.73 312584 16.71
3095 248214177 147 26.19 312632 16.71
3096 248372851 569 185.56 312803 16.71
3097 248416521 195 33.17 312871 16.71
3098 248501217 689 300.98 312982 16.71
3099 248557572 176 30.09 313059 16.71
